wavelength, amplitude
179.267, 11.06
179.649, 11.06
180.031, 11.06
180.413, -44.02
180.795, -59.29
181.177, -64.99
181.559, -58.95
181.941, -63.56
182.323, -61.19
182.705, -47.42
183.087, -44.57
183.469, -37.38
183.85, -14.11
184.232, -9.15
184.614, 4.28
184.995, 26.67
185.377, 43.08
185.759, 47.76
186.14, 78.5
186.522, 91.79
186.903, 109.23
187.285, 128.7
187.666, 140.77
188.047, 168.93
188.429, 190.98
188.81, 210.11
189.191, 221.51
189.573, 239.42
189.954, 258.28
190.335, 267.03
190.716, 286.77
191.097, 284.73
191.478, 298.3
191.859, 309.5
192.24, 326.05
192.621, 333.17
193.002, 344.57
193.383, 342.33
193.764, 352.57
194.145, 354.95
194.526, 369.4
194.906, 372.93
195.287, 387.17
195.668, 385.54
196.048, 389.62
196.429, 388.67
196.81, 381.47
197.19, 377.95
197.571, 387.78
197.951, 387.58
198.331, 389.21
198.712, 391.85
199.092, 392.19
199.472, 390.43
199.853, 370.69
200.233, 371.09
200.613, 376.39
200.993, 381.47
201.373, 366.89
201.754, 372.66
202.134, 362.07
202.514, 372.86
202.894, 361.19
203.274, 366.01
203.654, 364.18
204.033, 376.32
204.413, 355.42
204.793, 356.1
205.173, 360.17
205.553, 358.68
205.932, 361.33
206.312, 352.71
206.692, 354.61
207.071, 340.5
207.451, 362.07
207.83, 345.25
208.21, 340.36
208.589, 348.84
208.969, 356.03
209.348, 345.59
209.727, 341.45
210.107, 354.13
210.486, 351.08
210.865, 355.83
211.244, 348.44
211.623, 347.96
212.003, 350.27
212.382, 346.67
212.761, 350.54
213.14, 358.48
213.519, 361.12
213.898, 356.64
214.276, 344.23
214.655, 344.98
215.034, 353.39
215.413, 353.46
215.792, 355.29
216.17, 352.3
216.549, 354.2
216.928, 353.05
217.306, 364.18
217.685, 350.2
218.064, 369.47
218.442, 365.46
218.82, 356.85
219.199, 367.23
219.577, 357.73
219.956, 350.81
220.334, 361.26
220.712, 364.65
221.091, 356.92
221.469, 370.01
221.847, 363.77
222.225, 368.86
222.603, 363.56
222.981, 367.09
223.359, 355.83
223.737, 366.55
224.115, 375.37
224.493, 358.82
224.871, 360.78
225.249, 370.28
225.627, 370.96
226.004, 364.85
226.382, 361.26
226.76, 358.61
227.137, 356.78
227.515, 372.86
227.893, 369.13
228.27, 369.74
228.648, 360.17
229.025, 374.42
229.403, 358.54
229.78, 372.72
230.157, 360.24
230.535, 365.6
230.912, 358.07
231.289, 357.93
231.667, 377.27
232.044, 379.57
232.421, 365.6
232.798, 368.31
233.175, 376.25
233.552, 364.58
233.929, 369.2
234.306, 370.89
234.683, 367.16
235.06, 371.16
235.437, 370.28
235.814, 378.42
236.19, 369.2
236.567, 367.43
236.944, 378.29
237.32, 369.53
237.697, 368.52
238.074, 372.18
238.45, 369.87
238.827, 375.23
239.203, 366.69
239.58, 387.44
239.956, 377.27
240.332, 369.06
240.709, 375.44
241.085, 376.05
241.461, 366.21
241.838, 390.77
242.214, 379.91
242.59, 382.76
242.966, 374.69
243.342, 371.77
243.718, 376.25
244.094, 373.06
244.47, 367.84
244.846, 377
245.222, 376.05
245.598, 381.81
245.973, 373.06
246.349, 383.37
246.725, 377.74
247.101, 372.59
247.476, 384.53
247.852, 379.24
248.228, 375.78
248.603, 377.88
248.979, 387.92
249.354, 383.51
249.73, 386.63
250.105, 378.76
250.48, 374.49
250.856, 385.27
251.231, 388.06
251.606, 381.07
251.981, 391.92
252.357, 404.4
252.732, 390.7
253.107, 380.19
253.482, 379.44
253.857, 390.97
254.232, 379.3
254.607, 383.78
254.982, 385.95
255.357, 384.26
255.731, 388.06
256.106, 389.62
256.481, 386.7
256.856, 389.48
257.23, 376.05
257.605, 381.61
257.98, 382.63
258.354, 382.09
258.729, 385.07
259.103, 379.17
259.478, 383.17
259.852, 382.76
260.227, 391.92
260.601, 367.3
260.975, 388.26
261.35, 383.71
261.724, 388.8
262.098, 388.26
262.472, 384.12
262.846, 381.61
263.22, 378.35
263.594, 390.36
263.968, 390.23
264.342, 380.52
264.716, 387.44
265.09, 381.68
265.464, 403.73
265.838, 387.78
266.212, 380.05
266.586, 383.31
266.959, 386.43
267.333, 383.71
267.707, 379.98
268.08, 400.88
268.454, 389.62
268.827, 386.9
269.201, 395.11
269.574, 389.28
269.948, 392.13
270.321, 383.1
270.694, 385
271.068, 383.78
271.441, 390.57
271.814, 391.51
272.187, 387.51
272.56, 388.94
272.933, 394.84
273.307, 388.8
273.68, 377.68
274.053, 389.55
274.425, 396.54
274.798, 382.22
275.171, 385.82
275.544, 389.07
275.917, 400.4
276.29, 388.73
276.662, 389.14
277.035, 388.94
277.408, 396.2
277.78, 388.46
278.153, 387.65
278.525, 390.36
278.898, 404.88
279.27, 389
279.643, 398.43
280.015, 379.03
280.388, 397.01
280.76, 384.87
281.132, 395.79
281.504, 386.43
281.877, 386.36
282.249, 386.22
282.621, 389.48
282.993, 387.38
283.365, 397.01
283.737, 384.87
284.109, 397.62
284.481, 381.68
284.853, 398.64
285.225, 394.57
285.596, 396.81
285.968, 392.74
286.34, 400.54
286.712, 390.7
287.083, 385.68
287.455, 399.11
287.826, 394.43
288.198, 378.56
288.569, 394.36
288.941, 379.71
289.312, 390.9
289.684, 397.89
290.055, 388.12
290.426, 398.5
290.798, 390.09
291.169, 402.03
291.54, 393.48
291.911, 395.72
292.282, 404.2
292.653, 395.72
293.024, 393.48
293.395, 394.97
293.766, 392.67
294.137, 384.93
294.508, 389.34
294.879, 397.76
295.25, 400.06
295.621, 395.65
295.991, 387.38
296.362, 378.29
296.733, 379.98
297.103, 402.57
297.474, 393.41
297.844, 389.89
298.215, 399.11
298.585, 398.98
298.956, 392.13
299.326, 399.18
299.697, 392.87
300.067, 390.36
300.437, 389.07
300.807, 393.62
301.177, 387.92
301.548, 401.42
301.918, 404.61
302.288, 398.98
302.658, 393.62
303.028, 393.48
303.398, 399.45
303.768, 381.41
304.138, 392.53
304.507, 382.63
304.877, 397.82
305.247, 396.13
305.617, 393.62
305.986, 399.93
306.356, 391.99
306.726, 397.21
307.095, 390.23
307.465, 393.89
307.834, 400.2
308.204, 399.52
308.573, 390.9
308.942, 402.3
309.312, 396.81
309.681, 410.24
310.05, 404.13
310.42, 404.61
310.789, 394.03
311.158, 399.52
311.527, 403.39
311.896, 402.51
312.265, 392.06
312.634, 394.77
313.003, 388.94
313.372, 404.34
313.741, 398.16
314.11, 395.25
314.478, 388.46
314.847, 397.69
315.216, 401.08
315.584, 392.33
315.953, 391.51
316.322, 402.3
316.69, 401.01
317.059, 399.45
317.427, 385.54
317.796, 392.26
318.164, 404.74
318.532, 391.85
318.901, 394.43
319.269, 387.31
319.637, 392.19
320.005, 392.4
320.374, 399.38
320.742, 405.83
321.11, 398.43
321.478, 396.06
321.846, 398.43
322.214, 399.18
322.582, 393.14
322.95, 397.42
323.317, 393.69
323.685, 404.2
324.053, 404.88
324.421, 392.19
324.788, 398.43
325.156, 401.76
325.524, 398.23
325.891, 393.08
326.259, 398.71
326.626, 405.69
326.994, 395.59
327.361, 411.12
327.728, 400.27
328.096, 390.57
328.463, 389.75
328.83, 395.52
329.198, 398.1
329.565, 403.66
329.932, 398.23
330.299, 408.68
330.666, 405.97
331.033, 400.27
331.4, 400.27
331.767, 390.77
332.134, 410.24
332.501, 409.56
332.867, 401.89
333.234, 395.04
333.601, 388.19
333.968, 401.22
334.334, 398.64
334.701, 397.62
335.068, 403.25
335.434, 403.93
335.801, 414.17
336.167, 423.13
336.533, 433.51
336.9, 441.45
337.266, 422.11
337.632, 407.46
337.999, 401.96
338.365, 397.48
338.731, 402.78
339.097, 404.13
339.463, 412
339.829, 404.54
340.195, 417.5
340.561, 419.8
340.927, 437.78
341.293, 472.65
341.659, 488.87
342.025, 468.45
342.391, 411.94
342.756, 407.32
343.122, 409.02
343.488, 446.19
343.853, 479.84
344.219, 555.62
344.585, 622.72
344.95, 647.55
345.316, 592.53
345.681, 588.93
346.046, 609.42
346.412, 629.43
346.777, 674.34
347.142, 623.26
347.507, 549.18
347.873, 442.12
348.238, 420.75
348.603, 429.85
348.968, 448.64
349.333, 466.07
349.698, 502.1
350.063, 504.67
350.428, 508.41
350.793, 527.88
351.157, 592.32
351.522, 722.51
351.887, 748.43
352.252, 657.11
352.616, 487.31
352.981, 410.24
353.346, 405.08
353.71, 407.25
354.075, 401.15
354.439, 404.27
354.803, 384.66
355.168, 403.73
355.532, 411.8
355.896, 390.63
356.261, 397.42
356.625, 404.34
356.989, 409.02
357.353, 410.65
357.717, 392.53
358.081, 434.66
358.445, 462.61
358.809, 545.24
359.173, 572.65
359.537, 559.35
359.901, 469.46
360.265, 427
360.629, 410.58
360.992, 404.07
361.356, 412.21
361.72, 404.4
362.083, 399.52
362.447, 410.37
362.81, 414.78
363.174, 430.05
363.537, 419.26
363.901, 409.42
364.264, 387.38
364.627, 401.15
364.991, 389.41
365.354, 399.05
365.717, 384.73
366.08, 401.28
366.443, 403.45
366.806, 396.6
367.17, 408.2
367.533, 418.79
367.895, 420.75
368.258, 435.14
368.621, 428.22
368.984, 414.99
369.347, 409.56
369.71, 429.03
370.072, 418.99
370.435, 408
370.798, 405.42
371.16, 399.93
371.523, 397.28
371.885, 411.53
372.248, 401.89
372.61, 406.1
372.973, 400.81
373.335, 390.16
373.697, 398.98
374.06, 400.4
374.422, 400.54
374.784, 400.4
375.146, 403.18
375.508, 410.1
375.87, 386.63
376.232, 399.45
376.594, 391.18
376.956, 393.62
377.318, 398.23
377.68, 390.29
378.042, 393.75
378.404, 396.74
378.765, 402.23
379.127, 392.13
379.489, 389.34
379.85, 392.6
380.212, 398.37
380.573, 408.88
380.935, 397.89
381.296, 390.63
381.658, 403.79
382.019, 406.98
382.38, 411.39
382.742, 400.13
383.103, 386.83
383.464, 403.39
383.825, 390.9
384.186, 402.98
384.547, 402.3
384.909, 399.18
385.27, 393.96
385.63, 391.18
385.991, 396.54
386.352, 389.48
386.713, 395.45
387.074, 391.24
387.435, 382.22
387.795, 401.01
388.156, 405.08
388.517, 398.03
388.877, 397.35
389.238, 388.8
389.598, 397.28
389.959, 394.23
390.319, 401.69
390.679, 397.21
391.04, 396.47
391.4, 392.74
391.76, 385
392.121, 395.31
392.481, 392.74
392.841, 387.99
393.201, 395.92
393.561, 401.83
393.921, 402.71
394.281, 391.38
394.641, 391.99
395.001, 401.69
395.361, 394.97
395.72, 393.28
396.08, 403.32
396.44, 395.52
396.8, 403.86
397.159, 414.17
397.519, 401.49
397.878, 404.54
398.238, 388.94
398.597, 396.6
398.957, 394.3
399.316, 404
399.675, 391.38
400.035, 392.53
400.394, 407.93
400.753, 385.54
401.112, 393.89
401.472, 387.99
401.831, 400.27
402.19, 393.89
402.549, 395.65
402.908, 393.48
403.267, 397.15
403.625, 394.57
403.984, 396.13
404.343, 401.01
404.702, 395.59
405.061, 388.53
405.419, 392.19
405.778, 398.16
406.136, 393.41
406.495, 385.27
406.853, 390.63
407.212, 399.66
407.57, 391.45
407.929, 399.66
408.287, 387.44
408.645, 394.77
409.004, 397.62
409.362, 394.5
409.72, 396.2
410.078, 391.51
410.436, 397.01
410.794, 394.23
411.152, 403.45
411.51, 396.81
411.868, 392.8
412.226, 393.48
412.584, 394.3
412.942, 389.21
413.299, 399.11
413.657, 387.44
414.015, 384.6
414.372, 396.13
414.73, 386.97
415.088, 392.06
415.445, 401.35
415.803, 391.85
416.16, 390.7
416.517, 380.32
416.875, 391.92
417.232, 386.49
417.589, 401.89
417.946, 393.69
418.304, 388.06
418.661, 392.4
419.018, 390.97
419.375, 384.93
419.732, 390.9
420.089, 400.13
420.446, 392.13
420.803, 389.41
421.159, 401.08
421.516, 399.59
421.873, 393.01
422.23, 392.6
422.586, 389.68
422.943, 391.24
423.299, 394.84
423.656, 398.71
424.012, 395.04
424.369, 401.56
424.725, 397.96
425.082, 390.84
425.438, 392.33
425.794, 405.63
426.15, 394.7
426.507, 388.8
426.863, 412.82
427.219, 398.03
427.575, 376.73
427.931, 398.77
428.287, 400.74
428.643, 391.24
428.999, 392.46
429.355, 390.57
429.711, 396.6
430.066, 408.95
430.422, 395.99
430.778, 380.52
431.133, 400
431.489, 389
431.844, 381.61
432.2, 389
432.555, 391.99
432.911, 392.33
433.266, 389.07
433.622, 399.18
433.977, 389.82
434.332, 388.12
434.687, 392.06
435.043, 396.33
435.398, 391.79
435.753, 395.11
436.108, 393.55
436.463, 391.51
436.818, 394.84
437.173, 395.86
437.528, 395.65
437.882, 399.45
438.237, 391.11
438.592, 397.55
438.947, 398.57
439.301, 397.82
439.656, 390.43
440.01, 393.01
440.365, 394.09
440.72, 396.67
441.074, 395.38
441.428, 390.84
441.783, 388.87
442.137, 400.88
442.491, 392.26
442.846, 396.13
443.2, 386.9
443.554, 395.92
443.908, 398.23
444.262, 393.14
444.616, 391.65
444.97, 398.43
445.324, 393.48
445.678, 386.49
446.032, 389.89
446.385, 392.33
446.739, 393.75
447.093, 391.04
447.447, 398.5
447.8, 391.24
448.154, 391.72
448.507, 389.75
448.861, 401.89
449.214, 383.1
449.568, 393.21
449.921, 394.84
450.274, 396.33
450.628, 386.16
450.981, 394.91
451.334, 378.9
451.687, 391.31
452.041, 387.58
452.394, 389
452.747, 389.28
453.1, 398.23
453.453, 402.1
453.805, 410.65
454.158, 392.8
454.511, 400.54
454.864, 382.63
455.217, 384.39
455.569, 383.85
455.922, 393.82
456.275, 398.5
456.627, 397.69
456.98, 398.91
457.332, 390.5
457.684, 396.94
458.037, 391.72
458.389, 390.02
458.741, 395.65
459.094, 392.8
459.446, 397.08
459.798, 395.86
460.15, 394.16
460.502, 392.19
460.854, 388.06
461.206, 392.13
461.558, 389.28
461.91, 392.6
462.262, 399.86
462.614, 391.99
462.966, 392.19
463.317, 396.67
463.669, 400.94
464.021, 391.11
464.372, 384.19
464.724, 399.18
465.075, 401.83
465.427, 399.59
465.778, 396.94
466.13, 382.63
466.481, 389.95
466.832, 384.6
467.183, 392.74
467.535, 387.65
467.886, 389.62
468.237, 381.34
468.588, 388.33
468.939, 387.04
469.29, 402.98
469.641, 402.44
469.992, 406.98
470.343, 421.5
470.694, 427.34
471.044, 431.61
471.395, 417.7
471.746, 404.81
472.096, 395.31
472.447, 388.53
472.798, 381.34
473.148, 383.44
473.499, 391.45
473.849, 387.11
474.199, 398.43
474.55, 398.57
474.9, 392.8
475.25, 404.68
475.6, 402.64
475.951, 390.57
476.301, 395.59
476.651, 387.17
477.001, 392.4
477.351, 406.17
477.701, 388.53
478.051, 394.7
478.4, 381.54
478.75, 389.55
479.1, 394.23
479.45, 391.79
479.799, 392.26
480.149, 405.9
480.499, 387.72
480.848, 393.35
481.198, 395.25
481.547, 404.47
481.897, 400.13
482.246, 397.55
482.595, 400.2
482.945, 387.04
483.294, 404.13
483.643, 399.86
483.992, 396.94
484.341, 400.61
484.69, 395.25
485.039, 392.6
485.388, 385.54
485.737, 398.43
486.086, 408.68
486.435, 403.39
486.784, 397.96
487.132, 392.13
487.481, 392.87
487.83, 385.41
488.178, 393.41
488.527, 410.65
488.876, 399.32
489.224, 393.89
489.572, 376.86
489.921, 382.83
490.269, 391.72
490.618, 389.28
490.966, 389.68
491.314, 378.29
491.662, 388.8
492.01, 380.66
492.358, 397.08
492.706, 401.56
493.054, 390.16
493.402, 395.38
493.75, 390.36
494.098, 395.52
494.446, 393.35
494.794, 397.62
495.142, 395.52
495.489, 399.05
495.837, 401.49
496.184, 393.69
496.532, 392.26
496.88, 396.87
497.227, 399.25
497.574, 384.12
497.922, 388.53
498.269, 391.31
498.616, 396.06
498.964, 399.66
499.311, 391.99
499.658, 380.05
500.005, 391.18
500.352, 405.76
500.699, 394.64
501.046, 380.86
501.393, 394.03
501.74, 401.08
502.087, 397.08
502.434, 403.52
502.78, 442.12
503.127, 463.56
503.474, 508.68
503.82, 499.45
504.167, 450.13
504.513, 410.65
504.86, 382.7
505.206, 403.86
505.553, 400.81
505.899, 394.3
506.245, 384.6
506.592, 405.35
506.938, 407.8
507.284, 431.41
507.63, 459.83
507.976, 460.37
508.322, 421.84
508.668, 404.27
509.014, 392.53
509.36, 399.18
509.706, 396.06
510.052, 405.22
510.398, 397.01
510.743, 426.79
511.089, 498.57
511.435, 555.22
511.78, 540.9
512.126, 468.51
512.471, 422.52
512.817, 392.19
513.162, 396.33
513.508, 397.82
513.853, 417.16
514.198, 453.73
514.543, 454.54
514.889, 448.09
515.234, 429.3
515.579, 426.05
515.924, 399.32
516.269, 399.59
516.614, 395.04
516.959, 398.57
517.304, 392.26
517.648, 393.08
517.993, 391.24
518.338, 421.3
518.683, 454.2
519.027, 458.81
519.372, 434.93
519.716, 437.85
520.061, 448.77
520.405, 452.03
520.75, 441.58
521.094, 427.34
521.439, 403.18
521.783, 401.56
522.127, 408.61
522.471, 403.18
522.815, 397.35
523.159, 406.44
523.504, 403.79
523.848, 393.55
524.192, 393.62
524.535, 396.6
524.879, 387.58
525.223, 401.62
525.567, 394.64
525.911, 382.42
526.254, 386.29
526.598, 393.55
526.942, 402.84
527.285, 391.04
527.629, 404.95
527.972, 396.4
528.316, 406.91
528.659, 386.22
529.002, 391.24
529.346, 399.25
529.689, 411.32
530.032, 406.03
530.375, 402.78
530.718, 416.07
531.061, 402.98
531.404, 410.37
531.747, 411.8
532.09, 441.04
532.433, 528.69
532.776, 694.22
533.119, 697.82
533.461, 686.35
533.804, 749.17
534.147, 764.78
534.489, 636.08
534.832, 486.9
535.174, 426.39
535.517, 412.88
535.859, 420.96
536.202, 416.34
536.544, 396.54
536.886, 398.91
537.229, 413.36
537.571, 414.45
537.913, 391.65
538.255, 396.94
538.597, 409.49
538.939, 455.96
539.281, 631.47
539.623, 1173.65
539.965, 1492.98
540.307, 1214.77
540.648, 673.8
540.99, 477.13
541.332, 420.96
541.674, 417.5
542.015, 397.96
542.357, 394.77
542.698, 399.38
543.04, 414.99
543.381, 414.17
543.722, 414.85
544.064, 386.56
544.405, 407.32
544.746, 394.91
545.087, 402.78
545.429, 401.49
545.77, 395.31
546.111, 397.82
546.452, 386.77
546.793, 389.95
547.134, 407.93
547.474, 385.82
547.815, 396.26
548.156, 398.71
548.497, 398.84
548.837, 391.99
549.178, 400.06
549.519, 398.23
549.859, 401.01
550.2, 390.5
550.54, 386.83
550.881, 390.29
551.221, 399.66
551.561, 390.77
551.901, 397.96
552.242, 395.18
552.582, 396.47
552.922, 388.8
553.262, 401.01
553.602, 396.2
553.942, 400.81
554.282, 398.77
554.622, 401.49
554.962, 396.26
555.302, 400.67
555.641, 433.44
555.981, 465.46
556.321, 475.71
556.66, 429.1
557, 408.68
557.339, 404.61
557.679, 396.33
558.018, 406.44
558.358, 403.05
558.697, 407.32
559.036, 400.33
559.376, 397.01
559.715, 405.63
560.054, 398.71
560.393, 409.49
560.732, 411.87
561.071, 380.93
561.41, 407.32
561.749, 390.77
562.088, 389.34
562.427, 403.12
562.766, 397.21
563.104, 410.17
563.443, 401.96
563.782, 400.88
564.12, 408.61
564.459, 408.95
564.797, 440.5
565.136, 508.68
565.474, 569.05
565.813, 540.7
566.151, 476.18
566.489, 431
566.827, 421.03
567.166, 408.95
567.504, 402.23
567.842, 404
568.18, 432.76
568.518, 480.66
568.856, 499.11
569.194, 491.04
569.531, 447.96
569.869, 424.89
570.207, 426.32
570.545, 420.89
570.882, 406.78
571.22, 425.71
571.558, 473.81
571.895, 468.11
572.233, 451.76
572.57, 411.94
572.907, 416.48
573.245, 416.01
573.582, 422.93
573.919, 433.64
574.257, 523.81
574.594, 618.71
574.931, 608.61
575.268, 544.63
575.605, 585.07
575.942, 1016.47
576.279, 1331.38
576.616, 1161.44
576.952, 719.59
577.289, 519.06
577.626, 455.15
577.963, 435.14
578.299, 439.61
578.636, 426.86
578.972, 433.44
579.309, 436.97
579.645, 461.12
579.982, 533.71
580.318, 608.67
580.654, 587.24
580.991, 538.73
581.327, 647.21
581.663, 915.86
581.999, 976.58
582.335, 792.12
582.671, 577.06
583.007, 523.26
583.343, 550.26
583.679, 686.28
584.015, 1291.09
584.351, 5582.17
584.686, 29764.38
585.022, 48380.04
585.358, 46751.72
585.693, 25468.62
586.029, 7355.47
586.364, 2502.53
586.7, 1554.65
587.035, 1518.69
587.371, 3020.9
587.706, 11103.01
588.041, 17491.46
588.376, 14075.46
588.712, 5774.57
589.047, 2019.02
589.382, 971.83
589.717, 973.59
590.052, 1127.32
590.387, 1129.35
590.722, 890.49
591.057, 706.43
591.391, 632.08
591.726, 597.21
592.061, 556.3
592.395, 518.85
592.73, 517.5
593.065, 626.04
593.399, 1270.87
593.734, 5778.23
594.068, 22436.47
594.402, 31146.31
594.737, 22981.16
595.071, 7906.95
595.405, 2647.64
595.739, 1236.27
596.074, 1054.66
596.408, 1027.25
596.742, 1618.35
597.076, 4872.28
597.41, 7579.68
597.744, 6093.83
598.077, 2728.03
598.411, 1232.74
598.745, 827.05
599.079, 713.15
599.412, 600.67
599.746, 534.59
600.079, 502.16
600.413, 478.22
600.746, 469.74
601.08, 462.82
601.413, 470.96
601.747, 517.83
602.08, 941.1
602.413, 3812.2
602.746, 7938.83
603.079, 7671.06
603.412, 4265.58
603.746, 1568.08
604.079, 796.12
604.411, 609.22
604.744, 547.75
605.077, 519.33
605.41, 533.64
605.743, 543.48
