wavelength, amplitude
179.267, 13.75
179.649, 13.75
180.031, 13.75
180.413, -44.12
180.795, -47.92
181.177, -49.89
181.559, -70.78
181.941, -59.05
182.323, -60
182.705, -52.33
183.087, -34.08
183.469, -32.18
183.85, -23.43
184.232, -0.7
184.614, 2.01
184.995, 24.33
185.377, 44.27
185.759, 46.11
186.14, 66.46
186.522, 86.95
186.903, 112.32
187.285, 126.63
187.666, 143.05
188.047, 157.09
188.429, 176.97
188.81, 184.84
189.191, 208.31
189.573, 233.42
189.954, 241.96
190.335, 255.87
190.716, 271.95
191.097, 285.59
191.478, 295.9
191.859, 299.97
192.24, 314.49
192.621, 335.11
193.002, 336.19
193.383, 342.71
193.764, 349.83
194.145, 369.03
194.526, 366.79
194.906, 362.86
195.287, 363.06
195.668, 362.18
196.048, 383.75
196.429, 371.07
196.81, 373.1
197.19, 384.9
197.571, 377.24
197.951, 373.1
198.331, 369.44
198.712, 373.58
199.092, 361.7
199.472, 376.56
199.853, 369.44
200.233, 369.78
200.613, 366.86
200.993, 367.54
201.373, 364.01
201.754, 357.63
202.134, 363.81
202.514, 355.87
202.894, 346.3
203.274, 349.49
203.654, 347.73
204.033, 358.72
204.413, 342.16
204.793, 360.21
205.173, 351.59
205.553, 337.76
205.932, 343.18
206.312, 340.27
206.692, 354.38
207.071, 353.29
207.451, 338.37
207.83, 338.98
208.21, 329.48
208.589, 338.16
208.969, 343.45
209.348, 345.56
209.727, 331.92
210.107, 335.52
210.486, 339.38
210.865, 332.12
211.244, 335.31
211.623, 325.14
212.003, 335.25
212.382, 334.63
212.761, 337.82
213.14, 344.74
213.519, 325.82
213.898, 343.86
214.276, 327.85
214.655, 344
215.034, 347.66
215.413, 338.3
215.792, 342.57
216.17, 341.69
216.549, 338.16
216.928, 328.94
217.306, 346.37
217.685, 354.04
218.064, 343.66
218.442, 354.44
218.82, 349.42
219.199, 345.76
219.577, 337.35
219.956, 335.79
220.334, 342.84
220.712, 331.17
221.091, 344.81
221.469, 357.09
221.847, 356.41
222.225, 338.03
222.603, 351.59
222.981, 356.28
223.359, 346.24
223.737, 356.95
224.115, 352.27
224.493, 345.83
224.871, 354.51
225.249, 352.27
225.627, 343.32
226.004, 353.56
226.382, 349.97
226.76, 349.29
227.137, 353.16
227.515, 345.35
227.893, 350.71
228.27, 359.19
228.648, 349.29
229.025, 354.04
229.403, 360.82
229.78, 343.93
230.157, 350.44
230.535, 351.26
230.912, 352
231.289, 360.89
231.667, 357.16
232.044, 361.09
232.421, 363.67
232.798, 357.77
233.175, 356.82
233.552, 362.52
233.929, 356.75
234.306, 343.66
234.683, 358.85
235.06, 354.1
235.437, 357.09
235.814, 350.03
236.19, 356.07
236.567, 366.93
236.944, 358.31
237.32, 362.72
237.697, 356.82
238.074, 355.53
238.45, 362.04
238.827, 366.52
239.203, 355.94
239.58, 361.16
239.956, 359.33
240.332, 365.91
240.709, 374.53
241.085, 367.2
241.461, 360.41
241.838, 361.77
242.214, 360.41
242.59, 356.55
242.966, 377.44
243.342, 359.74
243.718, 366.59
244.094, 358.18
244.47, 372.63
244.846, 375.34
245.222, 372.96
245.598, 364.15
245.973, 364.35
246.349, 363.26
246.725, 362.79
247.101, 361.09
247.476, 366.18
247.852, 365.3
248.228, 360.35
248.603, 368.83
248.979, 367.06
249.354, 370.25
249.73, 356.48
250.105, 352.61
250.48, 373.78
250.856, 368.83
251.231, 358.24
251.606, 373.24
251.981, 365.5
252.357, 350.85
252.732, 364.15
253.107, 369.91
253.482, 367.67
253.857, 366.11
254.232, 360.62
254.607, 370.86
254.982, 369.98
255.357, 363.47
255.731, 371.54
256.106, 374.8
256.481, 377.51
256.856, 375.34
257.23, 373.51
257.605, 374.86
257.98, 370.25
258.354, 368.69
258.729, 363.6
259.103, 372.83
259.478, 375.88
259.852, 374.73
260.227, 372.76
260.601, 367.06
260.975, 351.93
261.35, 367.06
261.724, 363.87
262.098, 368.15
262.472, 360.82
262.846, 375.2
263.22, 360.55
263.594, 375.95
263.968, 376.76
264.342, 370.59
264.716, 360.28
265.09, 372.42
265.464, 371.68
265.838, 366.93
266.212, 375.61
266.586, 371.13
266.959, 372.83
267.333, 368.89
267.707, 385.18
268.08, 370.25
268.454, 367.2
268.827, 375.41
269.201, 371.07
269.574, 383.28
269.948, 376.02
270.321, 372.63
270.694, 377.98
271.068, 381.31
271.441, 382.6
271.814, 368.42
272.187, 372.22
272.56, 363.06
272.933, 371.95
273.307, 372.56
273.68, 380.02
274.053, 379.21
274.425, 378.32
274.798, 370.25
275.171, 369.78
275.544, 367.88
275.917, 377.37
276.29, 375.14
276.662, 384.43
277.035, 367.27
277.408, 391.69
277.78, 376.02
278.153, 373.58
278.525, 383.48
278.898, 383.41
279.27, 374.19
279.643, 377.65
280.015, 376.7
280.388, 378.66
280.76, 380.16
281.132, 373.37
281.504, 377.78
281.877, 372.42
282.249, 379.68
282.621, 382.67
282.993, 383.14
283.365, 381.31
283.737, 385.31
284.109, 371.27
284.481, 384.29
284.853, 369.17
285.225, 379.95
285.596, 382.46
285.968, 388.98
286.34, 371.68
286.712, 381.04
287.083, 388.5
287.455, 380.5
287.826, 386.8
288.198, 371
288.569, 380.83
288.941, 381.99
289.312, 369.78
289.684, 377.78
290.055, 383.55
290.426, 386.47
290.798, 390.47
291.169, 376.09
291.54, 371.2
291.911, 381.44
292.282, 376.15
292.653, 374.19
293.024, 378.39
293.395, 389.79
293.766, 388.5
294.137, 380.7
294.508, 376.49
294.879, 388.23
295.25, 387.01
295.621, 380.43
295.991, 366.93
296.362, 383.95
296.733, 376.56
297.103, 381.58
297.474, 377.04
297.844, 391.21
298.215, 368.15
298.585, 374.86
298.956, 372.08
299.326, 384.77
299.697, 387.14
300.067, 379.82
300.437, 388.36
300.807, 374.86
301.177, 383.21
301.548, 377.24
301.918, 380.9
302.288, 379.07
302.658, 376.22
303.028, 380.83
303.398, 378.05
303.768, 378.39
304.138, 385.45
304.507, 375.34
304.877, 384.7
305.247, 384.23
305.617, 371.07
305.986, 379.61
306.356, 377.04
306.726, 379.07
307.095, 383.68
307.465, 378.32
307.834, 381.17
308.204, 388.7
308.573, 385.92
308.942, 374.25
309.312, 388.43
309.681, 381.92
310.05, 389.18
310.42, 389.31
310.789, 374.12
311.158, 383.89
311.527, 379.41
311.896, 382.87
312.265, 384.63
312.634, 385.58
313.003, 385.65
313.372, 370.52
313.741, 376.29
314.11, 386.47
314.478, 379.88
314.847, 391.96
315.216, 377.85
315.584, 379.27
315.953, 382.53
316.322, 380.43
316.69, 389.25
317.059, 386.67
317.427, 380.16
317.796, 396.51
318.164, 398.88
318.532, 422.42
318.901, 469.37
319.269, 596.3
319.637, 712.31
320.005, 624.04
320.374, 452.41
320.742, 402.34
321.11, 388.23
321.478, 381.92
321.846, 389.18
322.214, 379.88
322.582, 390.06
322.95, 389.45
323.317, 382.67
323.685, 381.85
324.053, 385.52
324.421, 386.4
324.788, 395.56
325.156, 386.19
325.524, 382.06
325.891, 383.89
326.259, 381.65
326.626, 385.52
326.994, 384.36
327.361, 377.04
327.728, 388.23
328.096, 393.18
328.463, 378.73
328.83, 388.36
329.198, 381.65
329.565, 389.59
329.932, 397.52
330.299, 395.42
330.666, 387.21
331.033, 390.06
331.4, 391.35
331.767, 385.38
332.134, 381.51
332.501, 379.55
332.867, 388.03
333.234, 382.19
333.601, 384.63
333.968, 388.16
334.334, 387.55
334.701, 390.81
335.068, 390.4
335.434, 377.58
335.801, 391.69
336.167, 389.52
336.533, 394.88
336.9, 387.21
337.266, 387.35
337.632, 379.07
337.999, 381.04
338.365, 384.57
338.731, 375.47
339.097, 370.66
339.463, 383.14
339.829, 382.53
340.195, 383.68
340.561, 391.01
340.927, 382.8
341.293, 388.84
341.659, 386.06
342.025, 392.77
342.391, 387.82
342.756, 384.97
343.122, 379.82
343.488, 389.04
343.853, 386.06
344.219, 381.44
344.585, 395.15
344.95, 407.16
345.316, 397.66
345.681, 405.73
346.046, 392.44
346.412, 389.18
346.777, 392.71
347.142, 404.78
347.507, 384.16
347.873, 379.21
348.238, 401.19
348.603, 381.65
348.968, 385.58
349.333, 385.04
349.698, 389.18
350.063, 384.16
350.428, 392.44
350.793, 373.64
351.157, 380.36
351.522, 380.43
351.887, 380.29
352.252, 390.33
352.616, 387.35
352.981, 387.28
353.346, 379.55
353.71, 383.01
354.075, 385.79
354.439, 397.59
354.803, 384.5
355.168, 391.42
355.532, 380.29
355.896, 389.31
356.261, 392.3
356.625, 388.5
356.989, 376.9
357.353, 388.84
357.717, 384.02
358.081, 388.5
358.445, 383.62
358.809, 394.06
359.173, 389.92
359.537, 394.74
359.901, 399.29
360.265, 392.98
360.629, 390.06
360.992, 393.52
361.356, 403.02
361.72, 409.87
362.083, 432.12
362.447, 427.37
362.81, 394.95
363.174, 390.13
363.537, 400.03
363.901, 384.43
364.264, 402.2
364.627, 407.9
364.991, 385.52
365.354, 392.03
365.717, 393.18
366.08, 393.52
366.443, 393.25
366.806, 385.85
367.17, 385.79
367.533, 385.45
367.895, 381.04
368.258, 377.24
368.621, 384.29
368.984, 388.91
369.347, 375.68
369.71, 394.54
370.072, 388.64
370.435, 395.28
370.798, 422.62
371.16, 430.43
371.523, 421.88
371.885, 401.39
372.248, 386.53
372.61, 379.34
372.973, 383.41
373.335, 391.69
373.697, 388.09
374.06, 406.34
374.422, 395.49
374.784, 386.94
375.146, 379.21
375.508, 388.09
375.87, 381.72
376.232, 376.22
376.594, 379.41
376.956, 392.5
377.318, 383.75
377.68, 379.55
378.042, 395.49
378.404, 389.99
378.765, 384.09
379.127, 389.79
379.489, 384.23
379.85, 385.52
380.212, 382.67
380.573, 395.28
380.935, 396.37
381.296, 407.29
381.658, 413.47
382.019, 454.65
382.38, 528.32
382.742, 599.76
383.103, 523.71
383.464, 430.7
383.825, 391.21
384.186, 393.59
384.547, 400.64
384.909, 412.24
385.27, 401.53
385.63, 423.03
385.991, 419.1
386.352, 413.94
386.713, 448.34
387.074, 482.87
387.435, 583.61
387.795, 771.8
388.156, 1206.8
388.517, 2227.81
388.877, 4951.01
389.238, 12188.64
389.598, 19323.01
389.959, 11643.06
390.319, 3320.25
390.679, 1169.69
391.04, 690.6
391.4, 545.76
391.76, 469.57
392.121, 452.88
392.481, 439.38
392.841, 445.96
393.201, 425.81
393.561, 425.88
393.921, 418.21
394.281, 423.64
394.641, 400.44
395.001, 407.43
395.361, 422.83
395.72, 420.45
396.08, 436.12
396.44, 498.47
396.8, 631.91
397.159, 804.84
397.519, 675.87
397.878, 488.36
398.238, 417.67
398.597, 403.76
398.957, 411.84
399.316, 399.35
399.675, 400.64
400.035, 410.68
400.394, 406.48
400.753, 398.34
401.112, 412.92
401.472, 431.1
401.831, 449.56
402.19, 490.19
402.549, 624.59
402.908, 958.09
403.267, 1388.14
403.625, 1107.21
403.984, 615.09
404.343, 454.17
404.702, 411.02
405.061, 414.96
405.419, 402.2
405.778, 403.9
406.136, 401.93
406.495, 399.76
406.853, 394.67
407.212, 402.41
407.57, 398.2
407.929, 397.59
408.287, 399.76
408.645, 394.27
409.004, 408.45
409.362, 402.2
409.72, 398.68
410.078, 394.61
410.436, 393.32
410.794, 401.86
411.152, 396.17
411.51, 405.39
411.868, 424.8
412.226, 469.37
412.584, 575.54
412.942, 596.84
413.299, 468.21
413.657, 399.9
414.015, 405.8
414.372, 408.11
414.73, 430.63
415.088, 464.35
415.445, 417.81
415.803, 405.32
416.16, 390.13
416.517, 401.46
416.875, 386.53
417.232, 394.81
417.589, 394.2
417.946, 391.55
418.304, 393.38
418.661, 386.33
419.018, 389.45
419.375, 390.33
419.732, 395.89
420.089, 384.97
420.446, 383.28
420.803, 382.33
421.159, 384.29
421.516, 389.45
421.873, 378.8
422.23, 386.4
422.586, 385.79
422.943, 379.68
423.299, 385.65
423.656, 388.09
424.012, 387.21
424.369, 384.97
424.725, 384.16
425.082, 381.17
425.438, 387.55
425.794, 392.1
426.15, 400.44
426.507, 369.57
426.863, 384.29
427.219, 379.27
427.575, 384.29
427.931, 392.37
428.287, 390.87
428.643, 371.34
428.999, 377.44
429.355, 386.74
429.711, 392.1
430.066, 387.28
430.422, 389.11
430.778, 387.55
431.133, 389.18
431.489, 382.87
431.844, 387.69
432.2, 388.43
432.555, 378.12
432.911, 387.69
433.266, 392.5
433.622, 383.89
433.977, 384.77
434.332, 382.94
434.687, 383.21
435.043, 382.87
435.398, 390.54
435.753, 378.6
436.108, 379.41
436.463, 381.72
436.818, 378.53
437.173, 390.54
437.528, 384.09
437.882, 390.26
438.237, 405.32
438.592, 438.02
438.947, 509.87
439.301, 646.23
439.656, 610.54
440.01, 471.67
440.365, 407.7
440.72, 399.83
441.074, 397.52
441.428, 389.31
441.783, 384.57
442.137, 394.74
442.491, 383.14
442.846, 385.99
443.2, 396.57
443.554, 409.33
443.908, 411.84
444.262, 438.63
444.616, 446.84
444.97, 406.48
445.324, 412.52
445.678, 420.93
446.032, 471.47
446.385, 657.56
446.739, 1092.96
447.093, 2059.97
447.447, 4536.03
447.8, 7423.21
448.154, 4398.38
448.507, 1625.45
448.861, 736.66
449.214, 506.27
449.568, 447.11
449.921, 425
450.274, 411.57
450.628, 402.88
450.981, 402.34
451.334, 407.7
451.687, 400.17
452.041, 400.92
452.394, 388.09
452.747, 389.04
453.1, 386.06
453.453, 395.89
453.805, 382.19
454.158, 387.62
454.511, 383.01
454.864, 380.9
455.217, 386.4
455.569, 388.57
455.922, 394.61
456.275, 383.75
456.627, 378.66
456.98, 391.21
457.332, 393.38
457.684, 385.85
458.037, 392.5
458.389, 393.59
458.741, 389.79
459.094, 380.9
459.446, 393.18
459.798, 375.2
460.15, 375.47
460.502, 393.32
460.854, 376.56
461.206, 390.26
461.558, 387.55
461.91, 388.09
462.262, 391.69
462.614, 394.74
462.966, 386.26
463.317, 391.15
463.669, 385.31
464.021, 391.76
464.372, 392.37
464.724, 393.72
465.075, 388.43
465.427, 373.64
465.778, 389.45
466.13, 382.94
466.481, 378.39
466.832, 380.63
467.183, 378.66
467.535, 385.38
467.886, 385.99
468.237, 386.8
468.588, 385.99
468.939, 380.29
469.29, 392.71
469.641, 396.57
469.992, 404.78
470.343, 417.33
470.694, 501.93
471.044, 686.53
471.395, 1144.39
471.746, 2029.71
472.096, 2252.7
472.447, 1165.08
472.798, 605.73
473.148, 444.6
473.499, 408.31
473.849, 398.68
474.199, 398.47
474.55, 399.56
474.9, 397.73
475.25, 388.5
475.6, 389.04
475.951, 384.77
476.301, 375.07
476.651, 383.55
477.001, 387.28
477.351, 380.56
477.701, 382.94
478.051, 389.72
478.4, 387.01
478.75, 381.44
479.1, 380.09
479.45, 382.33
479.799, 375.54
480.149, 385.52
480.499, 378.93
480.848, 384.77
481.198, 374.12
481.547, 390.6
481.897, 384.77
482.246, 386.47
482.595, 383.95
482.945, 382.53
483.294, 382.8
483.643, 383.75
483.992, 380.83
484.341, 375.61
484.69, 379.68
485.039, 378.05
485.388, 379
485.737, 384.9
486.086, 388.77
486.435, 383.41
486.784, 381.65
487.132, 387.14
487.481, 380.22
487.83, 389.65
488.178, 381.11
488.527, 385.31
488.876, 396.44
489.224, 389.52
489.572, 391.96
489.921, 392.77
490.269, 391.96
490.618, 393.38
490.966, 407.97
491.314, 440.33
491.662, 603.69
492.01, 933.47
492.358, 1829.11
492.706, 3709.73
493.054, 3584.02
493.402, 1617.78
493.75, 713.26
494.098, 465.7
494.446, 419.1
494.794, 409.19
495.142, 402.61
495.489, 395.62
495.837, 397.59
496.184, 389.86
496.532, 389.25
496.88, 391.69
497.227, 400.78
497.574, 405.12
497.922, 385.85
498.269, 396.23
498.616, 385.31
498.964, 391.89
499.311, 404.04
499.658, 396.03
500.005, 407.63
500.352, 433.75
500.699, 586.39
501.046, 1099.2
501.393, 2094.84
501.74, 4775.78
502.087, 10711.87
502.434, 10636.64
502.78, 4450.08
503.127, 1496.41
503.474, 715.49
503.82, 534.97
504.167, 514.89
504.513, 557.15
504.86, 698.67
505.206, 1100.22
505.553, 1314.46
505.899, 852.26
506.245, 526.69
506.592, 435.31
506.938, 413.33
507.284, 405.12
507.63, 397.93
507.976, 402.95
508.322, 408.24
508.668, 392.91
509.014, 399.22
509.36, 393.38
509.706, 397.93
510.052, 385.38
510.398, 397.18
510.743, 384.7
511.089, 393.38
511.435, 388.57
511.78, 395.89
512.126, 393.32
512.471, 384.7
512.817, 394.54
513.162, 390.54
513.508, 402.54
513.853, 381.24
514.198, 389.04
514.543, 393.86
514.889, 383.55
515.234, 391.49
515.579, 388.5
515.924, 396.98
516.269, 394.81
516.614, 376.15
516.959, 381.04
517.304, 395.08
517.648, 387.21
517.993, 382.87
518.338, 399.49
518.683, 382.19
519.027, 384.43
519.372, 394.33
519.716, 385.65
520.061, 385.65
520.405, 387.08
520.75, 392.98
521.094, 388.77
521.439, 388.7
521.783, 385.31
522.127, 392.1
522.471, 390.06
522.815, 382.19
523.159, 393.38
523.504, 384.23
523.848, 389.72
524.192, 389.52
524.535, 374.53
524.879, 389.52
525.223, 370.45
525.567, 384.43
525.911, 380.36
526.254, 389.38
526.598, 382.94
526.942, 382.87
527.285, 388.5
527.629, 384.9
527.972, 382.53
528.316, 387.08
528.659, 381.11
529.002, 385.85
529.346, 384.84
529.689, 372.76
530.032, 392.91
530.375, 389.65
530.718, 387.96
531.061, 383.68
531.404, 381.44
531.747, 380.77
532.09, 371.27
532.433, 379
532.776, 376.29
533.119, 384.63
533.461, 375.75
533.804, 378.32
534.147, 374.73
534.489, 375.88
534.832, 390.67
535.174, 375.88
535.517, 378.73
535.859, 372.63
536.202, 369.71
536.544, 386.74
536.886, 377.24
537.229, 377.1
537.571, 376.49
537.913, 374.39
538.255, 373.91
538.597, 377.31
538.939, 368.01
539.281, 386.67
539.623, 376.42
539.965, 380.7
540.307, 373.37
540.648, 366.38
540.99, 387.48
541.332, 371.2
541.674, 372.42
542.015, 385.04
542.357, 372.56
542.698, 371.13
543.04, 383.95
543.381, 377.85
543.722, 377.51
544.064, 386.26
544.405, 379.61
544.746, 374.66
545.087, 368.42
545.429, 392.77
545.77, 383.48
546.111, 382.46
546.452, 369.71
546.793, 380.97
547.134, 384.02
547.474, 377.24
547.815, 370.25
548.156, 381.24
548.497, 383.41
548.837, 366.04
549.178, 376.29
549.519, 376.22
549.859, 369.44
550.2, 374.12
550.54, 375.81
550.881, 374.19
551.221, 386.67
551.561, 380.43
551.901, 384.5
552.242, 380.16
552.582, 372.63
552.922, 373.64
553.262, 383.82
553.602, 387.82
553.942, 370.66
554.282, 379.27
554.622, 376.15
554.962, 386.47
555.302, 381.65
555.641, 374.93
555.981, 381.17
556.321, 387.48
556.66, 377.37
557, 380.43
557.339, 382.87
557.679, 382.46
558.018, 389.25
558.358, 381.51
558.697, 389.18
559.036, 386.53
559.376, 387.21
559.715, 386.94
560.054, 378.32
560.393, 382.06
560.732, 382.33
561.071, 391.01
561.41, 389.79
561.749, 384.02
562.088, 381.51
562.427, 388.77
562.766, 380.63
563.104, 383.82
563.443, 371.88
563.782, 385.99
564.12, 390.33
564.459, 383.75
564.797, 380.29
565.136, 390.4
565.474, 374.05
565.813, 393.45
566.151, 370.05
566.489, 381.92
566.827, 389.92
567.166, 389.31
567.504, 388.64
567.842, 383.55
568.18, 387.62
568.518, 385.24
568.856, 385.58
569.194, 391.49
569.531, 383.28
569.869, 376.42
570.207, 383.01
570.545, 386.53
570.882, 387.28
571.22, 390.67
571.558, 392.1
571.895, 394.61
572.233, 386.13
572.57, 390.81
572.907, 382.67
573.245, 387.48
573.582, 386.53
573.919, 390.6
574.257, 389.92
574.594, 391.55
574.931, 398.27
575.268, 386.26
575.605, 385.24
575.942, 379.61
576.279, 392.37
576.616, 387.69
576.952, 385.38
577.289, 386.06
577.626, 384.16
577.963, 389.11
578.299, 408.65
578.636, 402.88
578.972, 409.73
579.309, 403.49
579.645, 407.09
579.982, 396.91
580.318, 387.21
580.654, 401.46
580.991, 387.14
581.327, 408.85
581.663, 391.55
581.999, 399.29
582.335, 391.35
582.671, 402.27
583.007, 407.5
583.343, 408.04
583.679, 418.83
584.015, 417.47
584.351, 427.71
584.686, 433.41
585.022, 469.16
585.358, 489.58
585.693, 549.96
586.029, 610.27
586.364, 758.3
586.7, 1531.15
587.035, 4965.13
587.371, 9288.7
587.706, 22182.78
588.041, 44170.67
588.376, 54402.73
588.712, 50726.9
589.047, 34933.1
589.382, 10749.32
589.717, 3922.41
590.052, 1902.51
590.387, 1186.99
590.722, 886.79
591.057, 732.66
591.391, 662.31
591.726, 614.34
592.061, 577.78
592.395, 542.16
592.73, 524.11
593.065, 505.25
593.399, 489.24
593.734, 488.63
594.068, 494.06
594.402, 479.34
594.737, 480.09
595.071, 465.91
595.405, 461.5
595.739, 461.09
596.074, 457.97
596.408, 452.27
596.742, 452.54
597.076, 459.05
597.41, 461.84
597.744, 455.6
598.077, 451.8
598.411, 439.72
598.745, 452.47
599.079, 444.47
599.412, 450.64
599.746, 443.45
600.079, 439.31
600.413, 435.31
600.746, 438.23
601.08, 433.68
601.413, 446.03
601.747, 445.15
602.08, 436.87
602.413, 436.8
602.746, 419.44
603.079, 437.69
603.412, 431.51
603.746, 432.26
604.079, 430.22
604.411, 421.54
604.744, 438.43
605.077, 439.65
