wavelength, amplitude
179.267, -2.88
179.649, -2.88
180.031, -2.88
180.413, 13.26
180.795, -25.95
181.177, -53.63
181.559, -136.67
181.941, -95.15
182.323, -39.79
182.705, -46.71
183.087, 17.88
183.469, -60.55
183.85, 52.48
184.232, 6.34
184.614, -9.8
184.995, 13.26
185.377, 52.48
185.759, 61.7
186.14, 34.02
186.522, 100.91
186.903, 103.22
187.285, 112.45
187.666, 149.35
188.047, 167.8
188.429, 170.11
188.81, 133.21
189.191, 156.27
189.573, 174.72
189.954, 183.95
190.335, 241.62
190.716, 296.97
191.097, 271.6
191.478, 266.99
191.859, 317.73
192.24, 294.67
192.621, 331.57
193.002, 324.65
193.383, 354.64
193.764, 329.27
194.145, 396.16
194.526, 373.09
194.906, 350.03
195.287, 343.11
195.668, 444.6
196.048, 345.41
196.429, 375.4
196.81, 340.8
197.19, 377.71
197.571, 326.96
197.951, 426.14
198.331, 278.52
198.712, 354.64
199.092, 391.54
199.472, 352.33
199.853, 391.54
200.233, 303.89
200.613, 398.46
200.993, 320.04
201.373, 386.93
201.754, 435.37
202.134, 322.35
202.514, 345.41
202.894, 393.85
203.274, 368.48
203.654, 280.83
204.033, 303.89
204.413, 370.79
204.793, 389.24
205.173, 373.09
205.553, 315.43
205.932, 345.41
206.312, 290.05
206.692, 336.19
207.071, 310.81
207.451, 359.25
207.83, 273.91
208.21, 283.13
208.589, 361.56
208.969, 310.81
209.348, 317.73
209.727, 366.17
210.107, 338.49
210.486, 377.71
210.865, 324.65
211.244, 287.75
211.623, 384.62
212.003, 384.62
212.382, 377.71
212.761, 336.19
213.14, 276.21
213.519, 306.2
213.898, 375.4
214.276, 322.35
214.655, 292.36
215.034, 285.44
215.413, 326.96
215.792, 380.01
216.17, 345.41
216.549, 393.85
216.928, 290.05
217.306, 329.27
217.685, 363.87
218.064, 398.46
218.442, 338.49
218.82, 352.33
219.199, 333.88
219.577, 343.11
219.956, 303.89
220.334, 324.65
220.712, 382.32
221.091, 373.09
221.469, 340.8
221.847, 345.41
222.225, 326.96
222.603, 329.27
222.981, 361.56
223.359, 350.03
223.737, 287.75
224.115, 333.88
224.493, 333.88
224.871, 345.41
225.249, 350.03
225.627, 382.32
226.004, 299.28
226.382, 313.12
226.76, 347.72
227.137, 322.35
227.515, 347.72
227.893, 278.52
228.27, 308.51
228.648, 338.49
229.025, 331.57
229.403, 343.11
229.78, 317.73
230.157, 356.95
230.535, 366.17
230.912, 423.84
231.289, 386.93
231.667, 380.01
232.044, 407.69
232.421, 347.72
232.798, 326.96
233.175, 423.84
233.552, 345.41
233.929, 386.93
234.306, 375.4
234.683, 366.17
235.06, 317.73
235.437, 361.56
235.814, 386.93
236.19, 269.3
236.567, 315.43
236.944, 366.17
237.32, 345.41
237.697, 386.93
238.074, 363.87
238.45, 377.71
238.827, 370.79
239.203, 370.79
239.58, 303.89
239.956, 361.56
240.332, 299.28
240.709, 359.25
241.085, 350.03
241.461, 308.51
241.838, 354.64
242.214, 361.56
242.59, 331.57
242.966, 363.87
243.342, 370.79
243.718, 306.2
244.094, 359.25
244.47, 377.71
244.846, 338.49
245.222, 377.71
245.598, 414.61
245.973, 326.96
246.349, 382.32
246.725, 389.24
247.101, 428.45
247.476, 368.48
247.852, 329.27
248.228, 375.4
248.603, 340.8
248.979, 384.62
249.354, 373.09
249.73, 393.85
250.105, 380.01
250.48, 363.87
250.856, 352.33
251.231, 366.17
251.606, 356.95
251.981, 354.64
252.357, 380.01
252.732, 410
253.107, 296.97
253.482, 384.62
253.857, 393.85
254.232, 391.54
254.607, 352.33
254.982, 419.22
255.357, 412.3
255.731, 352.33
256.106, 333.88
256.481, 428.45
256.856, 412.3
257.23, 283.13
257.605, 373.09
257.98, 377.71
258.354, 370.79
258.729, 412.3
259.103, 380.01
259.478, 333.88
259.852, 373.09
260.227, 359.25
260.601, 370.79
260.975, 317.73
261.35, 340.8
261.724, 361.56
262.098, 391.54
262.472, 377.71
262.846, 370.79
263.22, 363.87
263.594, 410
263.968, 403.08
264.342, 368.48
264.716, 317.73
265.09, 370.79
265.464, 380.01
265.838, 384.62
266.212, 359.25
266.586, 416.92
266.959, 456.13
267.333, 345.41
267.707, 403.08
268.08, 382.32
268.454, 373.09
268.827, 347.72
269.201, 375.4
269.574, 356.95
269.948, 310.81
270.321, 356.95
270.694, 356.95
271.068, 366.17
271.441, 384.62
271.814, 407.69
272.187, 426.14
272.56, 426.14
272.933, 412.3
273.307, 398.46
273.68, 391.54
274.053, 373.09
274.425, 290.05
274.798, 356.95
275.171, 410
275.544, 398.46
275.917, 380.01
276.29, 366.17
276.662, 412.3
277.035, 347.72
277.408, 354.64
277.78, 410
278.153, 449.21
278.525, 384.62
278.898, 393.85
279.27, 329.27
279.643, 347.72
280.015, 343.11
280.388, 361.56
280.76, 352.33
281.132, 398.46
281.504, 384.62
281.877, 386.93
282.249, 400.77
282.621, 294.67
282.993, 391.54
283.365, 347.72
283.737, 368.48
284.109, 352.33
284.481, 391.54
284.853, 444.6
285.225, 361.56
285.596, 400.77
285.968, 308.51
286.34, 412.3
286.712, 363.87
287.083, 354.64
287.455, 301.59
287.826, 329.27
288.198, 352.33
288.569, 407.69
288.941, 343.11
289.312, 403.08
289.684, 352.33
290.055, 410
290.426, 368.48
290.798, 303.89
291.169, 426.14
291.54, 317.73
291.911, 356.95
292.282, 350.03
292.653, 345.41
293.024, 456.13
293.395, 449.21
293.766, 384.62
294.137, 386.93
294.508, 416.92
294.879, 320.04
295.25, 375.4
295.621, 421.53
295.991, 446.9
296.362, 433.06
296.733, 426.14
297.103, 380.01
297.474, 352.33
297.844, 403.08
298.215, 396.16
298.585, 414.61
298.956, 428.45
299.326, 350.03
299.697, 407.69
300.067, 386.93
300.437, 382.32
300.807, 347.72
301.177, 419.22
301.548, 377.71
301.918, 456.13
302.288, 380.01
302.658, 426.14
303.028, 320.04
303.398, 368.48
303.768, 352.33
304.138, 373.09
304.507, 423.84
304.877, 407.69
305.247, 460.74
305.617, 326.96
305.986, 398.46
306.356, 345.41
306.726, 308.51
307.095, 382.32
307.465, 366.17
307.834, 354.64
308.204, 426.14
308.573, 370.79
308.942, 389.24
309.312, 416.92
309.681, 389.24
310.05, 345.41
310.42, 451.52
310.789, 419.22
311.158, 400.77
311.527, 428.45
311.896, 384.62
312.265, 410
312.634, 366.17
313.003, 412.3
313.372, 463.05
313.741, 389.24
314.11, 393.85
314.478, 453.82
314.847, 467.66
315.216, 451.52
315.584, 428.45
315.953, 430.76
316.322, 386.93
316.69, 407.69
317.059, 386.93
317.427, 430.76
317.796, 403.08
318.164, 377.71
318.532, 502.26
318.901, 460.74
319.269, 430.76
319.637, 435.37
320.005, 382.32
320.374, 421.53
320.742, 400.77
321.11, 412.3
321.478, 423.84
321.846, 398.46
322.214, 393.85
322.582, 375.4
322.95, 343.11
323.317, 396.16
323.685, 423.84
324.053, 458.44
324.421, 421.53
324.788, 442.29
325.156, 423.84
325.524, 460.74
325.891, 518.41
326.259, 467.66
326.626, 465.36
326.994, 479.2
327.361, 460.74
327.728, 442.29
328.096, 472.28
328.463, 393.85
328.83, 433.06
329.198, 483.81
329.565, 460.74
329.932, 506.87
330.299, 569.15
330.666, 442.29
331.033, 476.89
331.4, 497.65
331.767, 460.74
332.134, 435.37
332.501, 497.65
332.867, 541.47
333.234, 506.87
333.601, 617.59
333.968, 723.69
334.334, 857.48
334.701, 988.95
335.068, 1101.98
335.434, 1411.06
335.801, 1791.65
336.167, 2568.97
336.533, 2859.6
336.9, 2276.03
337.266, 1780.12
337.632, 1697.08
337.999, 1344.17
338.365, 1185.01
338.731, 1122.74
339.097, 1005.1
339.463, 912.84
339.829, 781.36
340.195, 730.61
340.561, 735.23
340.927, 571.46
341.293, 548.39
341.659, 532.25
342.025, 520.71
342.391, 532.25
342.756, 520.71
343.122, 550.7
343.488, 569.15
343.853, 559.93
344.219, 504.57
344.585, 504.57
344.95, 509.18
345.316, 518.41
345.681, 476.89
346.046, 467.66
346.412, 444.6
346.777, 534.55
347.142, 460.74
347.507, 555.31
347.873, 439.98
348.238, 419.22
348.603, 543.78
348.968, 451.52
349.333, 460.74
349.698, 458.44
350.063, 472.28
350.428, 493.03
350.793, 483.81
351.157, 511.49
351.522, 513.79
351.887, 529.94
352.252, 523.02
352.616, 458.44
352.981, 518.41
353.346, 481.5
353.71, 421.53
354.075, 435.37
354.439, 513.79
354.803, 460.74
355.168, 516.1
355.532, 615.28
355.896, 645.27
356.261, 813.65
356.625, 991.26
356.989, 1281.89
357.353, 1699.38
357.717, 1881.61
358.081, 2043.07
358.445, 1902.36
358.809, 1618.65
359.173, 1355.7
359.537, 1138.88
359.901, 1002.79
360.265, 788.28
360.629, 679.87
360.992, 765.21
361.356, 684.48
361.72, 679.87
362.083, 569.15
362.447, 702.94
362.81, 682.18
363.174, 585.3
363.537, 606.06
363.901, 689.1
364.264, 520.71
364.627, 529.94
364.991, 615.28
365.354, 578.38
365.717, 536.86
366.08, 463.05
366.443, 486.12
366.806, 527.63
367.17, 490.73
367.533, 562.23
367.895, 474.58
368.258, 509.18
368.621, 474.58
368.984, 525.33
369.347, 516.1
369.71, 532.25
370.072, 525.33
370.435, 513.79
370.798, 451.52
371.16, 474.58
371.523, 416.92
371.885, 442.29
372.248, 486.12
372.61, 446.9
372.973, 495.34
373.335, 529.94
373.697, 497.65
374.06, 463.05
374.422, 504.57
374.784, 559.93
375.146, 486.12
375.508, 543.78
375.87, 479.2
376.232, 559.93
376.594, 453.82
376.956, 546.09
377.318, 520.71
377.68, 382.32
378.042, 495.34
378.404, 553.01
378.765, 497.65
379.127, 536.86
379.489, 564.54
379.85, 550.7
380.212, 585.3
380.573, 543.78
380.935, 543.78
381.296, 594.53
381.658, 573.77
382.019, 712.16
382.38, 843.64
382.742, 1023.55
383.103, 1376.46
383.464, 1927.74
383.825, 2453.64
384.186, 2912.65
384.547, 3639.23
384.909, 4174.36
385.27, 4654.13
385.63, 4483.45
385.991, 4421.17
386.352, 4624.15
386.713, 4808.68
387.074, 5565.24
387.435, 5622.9
387.795, 4935.54
388.156, 5396.86
388.517, 4820.21
388.877, 3210.2
389.238, 2054.6
389.598, 1812.41
389.959, 1471.03
390.319, 1288.81
390.679, 1120.43
391.04, 1021.25
391.4, 924.37
391.76, 965.89
392.121, 896.69
392.481, 850.56
392.841, 804.43
393.201, 769.83
393.561, 702.94
393.921, 636.04
394.281, 645.27
394.641, 705.24
395.001, 809.04
395.361, 839.02
395.72, 714.47
396.08, 594.53
396.44, 633.74
396.8, 587.61
397.159, 553.01
397.519, 476.89
397.878, 536.86
398.238, 559.93
398.597, 569.15
398.957, 659.11
399.316, 647.58
399.675, 576.07
400.035, 619.9
400.394, 513.79
400.753, 509.18
401.112, 516.1
401.472, 476.89
401.831, 437.68
402.19, 546.09
402.549, 516.1
402.908, 562.23
403.267, 652.19
403.625, 652.19
403.984, 686.79
404.343, 765.21
404.702, 769.83
405.061, 730.61
405.419, 633.74
405.778, 638.35
406.136, 599.14
406.495, 513.79
406.853, 516.1
407.212, 536.86
407.57, 520.71
407.929, 534.55
408.287, 610.67
408.645, 599.14
409.004, 548.39
409.362, 513.79
409.72, 497.65
410.078, 668.34
410.436, 553.01
410.794, 555.31
411.152, 472.28
411.51, 451.52
411.868, 536.86
412.226, 534.55
412.584, 557.62
412.942, 626.82
413.299, 737.53
413.657, 1005.1
414.015, 991.26
414.372, 1113.51
414.73, 1240.37
415.088, 1314.18
415.445, 1424.9
415.803, 1787.04
416.16, 2091.51
416.517, 1607.12
416.875, 1228.84
417.232, 905.92
417.589, 910.53
417.946, 993.57
418.304, 1078.91
418.661, 1055.84
419.018, 1078.91
419.375, 1307.26
419.732, 1611.73
420.089, 1996.94
420.446, 1985.4
420.803, 1249.6
421.159, 901.3
421.516, 878.24
421.873, 832.1
422.23, 645.27
422.586, 527.63
422.943, 476.89
423.299, 465.36
423.656, 585.3
424.012, 566.85
424.369, 497.65
424.725, 499.95
425.082, 573.77
425.438, 666.03
425.794, 822.88
426.15, 935.9
426.507, 991.26
426.863, 1032.78
427.219, 1106.59
427.575, 1194.24
427.931, 1099.67
428.287, 1145.8
428.643, 1268.05
428.999, 1351.09
429.355, 1547.15
429.711, 1752.44
430.066, 2158.4
430.422, 2331.39
430.778, 2299.1
431.133, 2815.78
431.489, 3477.77
431.844, 2310.63
432.2, 1210.39
432.555, 1014.33
432.911, 931.29
433.266, 1055.84
433.622, 1224.23
433.977, 1244.99
434.332, 1078.91
434.687, 1065.07
435.043, 1025.86
435.398, 975.11
435.753, 972.81
436.108, 991.26
436.463, 1048.92
436.818, 949.74
437.173, 859.78
437.528, 712.16
437.882, 702.94
438.237, 642.96
438.592, 668.34
438.947, 594.53
439.301, 479.2
439.656, 479.2
440.01, 495.34
440.365, 458.44
440.72, 499.95
441.074, 488.42
441.428, 479.2
441.783, 476.89
442.137, 472.28
442.491, 456.13
442.846, 474.58
443.2, 414.61
443.554, 384.62
443.908, 414.61
444.262, 430.76
444.616, 426.14
444.97, 451.52
445.324, 453.82
445.678, 382.32
446.032, 416.92
446.385, 414.61
446.739, 497.65
447.093, 479.2
447.447, 499.95
447.8, 539.17
448.154, 534.55
448.507, 493.03
448.861, 543.78
449.214, 525.33
449.568, 573.77
449.921, 566.85
450.274, 610.67
450.628, 548.39
450.981, 705.24
451.334, 612.98
451.687, 629.12
452.041, 599.14
452.394, 546.09
452.747, 532.25
453.1, 518.41
453.453, 506.87
453.805, 474.58
454.158, 456.13
454.511, 444.6
454.864, 428.45
455.217, 548.39
455.569, 536.86
455.922, 467.66
456.275, 497.65
456.627, 509.18
456.98, 439.98
457.332, 451.52
457.684, 490.73
458.037, 483.81
458.389, 377.71
458.741, 532.25
459.094, 516.1
459.446, 534.55
459.798, 463.05
460.15, 479.2
460.502, 536.86
460.854, 511.49
461.206, 474.58
461.558, 456.13
461.91, 414.61
462.262, 456.13
462.614, 467.66
462.966, 476.89
463.317, 458.44
463.669, 539.17
464.021, 481.5
464.372, 504.57
464.724, 513.79
465.075, 652.19
465.427, 818.26
465.778, 834.41
466.13, 975.11
466.481, 1219.61
466.832, 1358.01
467.183, 1519.47
467.535, 1810.1
467.886, 2109.96
468.237, 2172.24
468.588, 2139.94
468.939, 1763.97
469.29, 1604.81
469.641, 1828.55
469.992, 1879.3
470.343, 1489.48
470.694, 1328.02
471.044, 1387.99
471.395, 1563.3
471.746, 1644.03
472.096, 1251.9
472.447, 1083.52
472.798, 1035.08
473.148, 1039.7
473.499, 1203.47
473.849, 1353.4
474.199, 1145.8
474.55, 774.44
474.9, 642.96
475.25, 513.79
475.6, 499.95
475.951, 437.68
476.301, 483.81
476.651, 481.5
477.001, 499.95
477.351, 585.3
477.701, 582.99
478.051, 610.67
478.4, 511.49
478.75, 502.26
479.1, 523.02
479.45, 539.17
479.799, 539.17
480.149, 495.34
480.499, 523.02
480.848, 476.89
481.198, 458.44
481.547, 444.6
481.897, 453.82
482.246, 499.95
482.595, 467.66
482.945, 481.5
483.294, 548.39
483.643, 520.71
483.992, 576.07
484.341, 652.19
484.69, 571.46
485.039, 569.15
485.388, 615.28
485.737, 596.83
486.086, 726
486.435, 765.21
486.784, 666.03
487.132, 578.38
487.481, 569.15
487.83, 587.61
488.178, 566.85
488.527, 529.94
488.876, 569.15
489.224, 546.09
489.572, 592.22
489.921, 582.99
490.269, 444.6
490.618, 550.7
490.966, 506.87
491.314, 529.94
491.662, 553.01
492.01, 594.53
492.358, 499.95
492.706, 566.85
493.054, 523.02
493.402, 534.55
493.75, 541.47
494.098, 488.42
494.446, 481.5
494.794, 458.44
495.142, 451.52
495.489, 426.14
495.837, 446.9
496.184, 465.36
496.532, 504.57
496.88, 451.52
497.227, 423.84
497.574, 490.73
497.922, 504.57
498.269, 509.18
498.616, 483.81
498.964, 506.87
499.311, 451.52
499.658, 546.09
500.005, 571.46
500.352, 564.54
500.699, 456.13
501.046, 502.26
501.393, 576.07
501.74, 553.01
502.087, 520.71
502.434, 495.34
502.78, 587.61
503.127, 569.15
503.474, 483.81
503.82, 546.09
504.167, 592.22
504.513, 509.18
504.86, 573.77
505.206, 582.99
505.553, 589.91
505.899, 548.39
506.245, 599.14
506.592, 672.95
506.938, 668.34
507.284, 709.85
507.63, 753.68
507.976, 696.02
508.322, 709.85
508.668, 721.39
509.014, 848.25
509.36, 896.69
509.706, 1021.25
510.052, 1212.69
510.398, 1078.91
510.743, 1009.71
511.089, 1018.94
511.435, 1118.12
511.78, 1265.74
512.126, 1475.64
512.471, 1510.24
512.817, 2008.47
513.162, 2587.42
513.508, 2001.55
513.853, 1627.88
514.198, 1574.83
514.543, 1879.3
514.889, 2137.64
515.234, 2435.19
515.579, 2359.07
515.924, 2534.37
516.269, 3341.68
516.614, 5122.37
516.959, 4285.08
517.304, 1819.33
517.648, 832.1
517.993, 557.62
518.338, 548.39
518.683, 532.25
519.027, 594.53
519.372, 589.91
519.716, 453.82
520.061, 398.46
520.405, 490.73
520.75, 435.37
521.094, 469.97
521.439, 419.22
521.783, 539.17
522.127, 423.84
522.471, 456.13
522.815, 497.65
523.159, 486.12
523.504, 421.53
523.848, 400.77
524.192, 463.05
524.535, 502.26
524.879, 412.3
525.223, 495.34
525.567, 523.02
525.911, 497.65
526.254, 536.86
526.598, 467.66
526.942, 407.69
527.285, 527.63
527.629, 460.74
527.972, 511.49
528.316, 476.89
528.659, 400.77
529.002, 423.84
529.346, 433.06
529.689, 393.85
530.032, 449.21
530.375, 481.5
530.718, 442.29
531.061, 493.03
531.404, 472.28
531.747, 444.6
532.09, 456.13
532.433, 511.49
532.776, 490.73
533.119, 474.58
533.461, 469.97
533.804, 444.6
534.147, 513.79
534.489, 410
534.832, 356.95
535.174, 469.97
535.517, 506.87
535.859, 463.05
536.202, 463.05
536.544, 463.05
536.886, 516.1
537.229, 520.71
537.571, 543.78
537.913, 483.81
538.255, 516.1
538.597, 511.49
538.939, 504.57
539.281, 474.58
539.623, 439.98
539.965, 516.1
540.307, 504.57
540.648, 476.89
540.99, 573.77
541.332, 559.93
541.674, 649.88
542.015, 647.58
542.357, 675.26
542.698, 700.63
543.04, 675.26
543.381, 730.61
543.722, 797.51
544.064, 696.02
544.405, 576.07
544.746, 774.44
545.087, 815.96
545.429, 749.07
545.77, 666.03
546.111, 758.29
546.452, 677.56
546.793, 712.16
547.134, 843.64
547.474, 949.74
547.815, 806.73
548.156, 652.19
548.497, 649.88
548.837, 726
549.178, 677.56
549.519, 827.49
549.859, 813.65
550.2, 1081.22
550.54, 1168.87
550.881, 965.89
551.221, 730.61
551.561, 617.59
551.901, 672.95
552.242, 684.48
552.582, 753.68
552.922, 774.44
553.262, 825.18
553.602, 885.16
553.942, 1032.78
554.282, 1242.68
554.622, 1078.91
554.962, 841.33
555.302, 709.85
555.641, 696.02
555.981, 749.07
556.321, 889.77
556.66, 825.18
557, 852.86
557.339, 841.33
557.679, 986.65
558.018, 892.08
558.358, 1090.44
558.697, 1325.72
559.036, 1429.51
559.376, 885.16
559.715, 670.64
560.054, 580.69
560.393, 679.87
560.732, 755.99
561.071, 820.57
561.41, 836.72
561.749, 769.83
562.088, 845.94
562.427, 843.64
562.766, 820.57
563.104, 896.69
563.443, 1131.96
563.782, 1441.05
564.12, 1224.23
564.459, 719.08
564.797, 525.33
565.136, 527.63
565.474, 566.85
565.813, 504.57
566.151, 553.01
566.489, 479.2
566.827, 465.36
567.166, 449.21
567.504, 439.98
567.842, 460.74
568.18, 460.74
568.518, 476.89
568.856, 449.21
569.194, 398.46
569.531, 396.16
569.869, 428.45
570.207, 435.37
570.545, 518.41
570.882, 410
571.22, 446.9
571.558, 444.6
571.895, 433.06
572.233, 382.32
572.57, 398.46
572.907, 389.24
573.245, 405.38
573.582, 493.03
573.919, 463.05
574.257, 529.94
574.594, 488.42
574.931, 479.2
575.268, 499.95
575.605, 488.42
575.942, 476.89
576.279, 479.2
576.616, 493.03
576.952, 497.65
577.289, 446.9
577.626, 532.25
577.963, 474.58
578.299, 412.3
578.636, 350.03
578.972, 439.98
579.309, 398.46
579.645, 458.44
579.982, 403.08
580.318, 410
580.654, 435.37
580.991, 469.97
581.327, 375.4
581.663, 389.24
581.999, 463.05
582.335, 437.68
582.671, 460.74
583.007, 393.85
583.343, 423.84
583.679, 410
584.015, 527.63
584.351, 405.38
584.686, 426.14
585.022, 539.17
585.358, 546.09
585.693, 474.58
586.029, 506.87
586.364, 548.39
586.7, 582.99
587.035, 525.33
587.371, 559.93
587.706, 589.91
588.041, 601.44
588.376, 617.59
588.712, 732.92
589.047, 689.1
589.382, 806.73
589.717, 732.92
590.052, 732.92
590.387, 739.84
590.722, 582.99
591.057, 629.12
591.391, 592.22
591.726, 569.15
592.061, 672.95
592.395, 617.59
592.73, 677.56
593.065, 525.33
593.399, 638.35
593.734, 543.78
594.068, 516.1
594.402, 495.34
594.737, 566.85
595.071, 539.17
595.405, 520.71
595.739, 571.46
596.074, 638.35
596.408, 675.26
596.742, 573.77
597.076, 476.89
597.41, 520.71
597.744, 525.33
598.077, 525.33
598.411, 497.65
598.745, 495.34
599.079, 564.54
599.412, 585.3
599.746, 566.85
600.079, 529.94
600.413, 689.1
600.746, 751.37
601.08, 776.75
601.413, 624.51
601.747, 610.67
602.08, 481.5
602.413, 610.67
602.746, 566.85
603.079, 656.8
603.412, 691.4
603.746, 875.93
