wavelength, amplitude
179.267, -2.45
179.649, -2.45
180.031, -2.45
180.413, -0.14
180.795, -34.74
181.177, -41.66
181.559, -115.47
181.941, -39.36
182.323, -55.5
182.705, -94.71
183.087, -25.52
183.469, -76.26
183.85, -4.76
184.232, 22.92
184.614, -4.76
184.995, 39.07
185.377, 59.83
185.759, 71.36
186.14, 66.75
186.522, 85.2
186.903, 112.88
187.285, 140.56
187.666, 152.09
188.047, 117.49
188.429, 163.62
188.81, 182.08
189.191, 251.27
189.573, 283.57
189.954, 299.71
190.335, 290.49
190.716, 244.35
191.097, 352.76
191.478, 355.07
191.859, 329.7
192.24, 288.18
192.621, 412.74
193.002, 315.86
193.383, 403.51
193.764, 368.91
194.145, 352.76
194.526, 341.23
194.906, 357.38
195.287, 391.98
195.668, 415.04
196.048, 329.7
196.429, 401.2
196.81, 410.43
197.19, 408.12
197.571, 373.52
197.951, 387.36
198.331, 352.76
198.712, 375.83
199.092, 380.44
199.472, 375.83
199.853, 396.59
200.233, 380.44
200.613, 378.14
200.993, 389.67
201.373, 373.52
201.754, 419.66
202.134, 412.74
202.514, 405.82
202.894, 385.06
203.274, 320.47
203.654, 403.51
204.033, 387.36
204.413, 396.59
204.793, 368.91
205.173, 373.52
205.553, 401.2
205.932, 424.27
206.312, 382.75
206.692, 405.82
207.071, 352.76
207.451, 343.54
207.83, 345.85
208.21, 320.47
208.589, 359.68
208.969, 366.6
209.348, 389.67
209.727, 440.42
210.107, 373.52
210.486, 364.3
210.865, 391.98
211.244, 398.9
211.623, 396.59
212.003, 375.83
212.382, 329.7
212.761, 375.83
213.14, 348.15
213.519, 336.62
213.898, 308.94
214.276, 322.78
214.655, 442.72
215.034, 345.85
215.413, 426.58
215.792, 292.79
216.17, 327.39
216.549, 410.43
216.928, 361.99
217.306, 380.44
217.685, 327.39
218.064, 375.83
218.442, 417.35
218.82, 348.15
219.199, 398.9
219.577, 394.28
219.956, 373.52
220.334, 361.99
220.712, 364.3
221.091, 486.55
221.469, 387.36
221.847, 343.54
222.225, 389.67
222.603, 311.25
222.981, 391.98
223.359, 304.33
223.737, 343.54
224.115, 403.51
224.493, 396.59
224.871, 394.28
225.249, 419.66
225.627, 348.15
226.004, 451.95
226.382, 428.88
226.76, 378.14
227.137, 380.44
227.515, 428.88
227.893, 391.98
228.27, 398.9
228.648, 405.82
229.025, 361.99
229.403, 352.76
229.78, 334.31
230.157, 421.96
230.535, 345.85
230.912, 348.15
231.289, 348.15
231.667, 445.03
232.044, 391.98
232.421, 371.22
232.798, 368.91
233.175, 410.43
233.552, 315.86
233.929, 421.96
234.306, 366.6
234.683, 415.04
235.06, 375.83
235.437, 361.99
235.814, 378.14
236.19, 327.39
236.567, 451.95
236.944, 428.88
237.32, 412.74
237.697, 415.04
238.074, 398.9
238.45, 401.2
238.827, 412.74
239.203, 336.62
239.58, 341.23
239.956, 440.42
240.332, 352.76
240.709, 382.75
241.085, 380.44
241.461, 332.01
241.838, 405.82
242.214, 357.38
242.59, 398.9
242.966, 398.9
243.342, 350.46
243.718, 410.43
244.094, 470.4
244.47, 380.44
244.846, 445.03
245.222, 419.66
245.598, 417.35
245.973, 341.23
246.349, 394.28
246.725, 435.8
247.101, 394.28
247.476, 394.28
247.852, 410.43
248.228, 396.59
248.603, 385.06
248.979, 336.62
249.354, 428.88
249.73, 481.93
250.105, 456.56
250.48, 364.3
250.856, 408.12
251.231, 417.35
251.606, 412.74
251.981, 495.77
252.357, 389.67
252.732, 380.44
253.107, 375.83
253.482, 447.34
253.857, 368.91
254.232, 352.76
254.607, 334.31
254.982, 415.04
255.357, 385.06
255.731, 359.68
256.106, 385.06
256.481, 431.19
256.856, 461.17
257.23, 424.27
257.605, 391.98
257.98, 419.66
258.354, 433.5
258.729, 461.17
259.103, 396.59
259.478, 394.28
259.852, 398.9
260.227, 382.75
260.601, 405.82
260.975, 484.24
261.35, 433.5
261.724, 375.83
262.098, 389.67
262.472, 475.01
262.846, 468.09
263.22, 396.59
263.594, 438.11
263.968, 371.22
264.342, 421.96
264.716, 470.4
265.09, 461.17
265.464, 403.51
265.838, 408.12
266.212, 419.66
266.586, 405.82
266.959, 401.2
267.333, 401.2
267.707, 421.96
268.08, 380.44
268.454, 391.98
268.827, 458.87
269.201, 403.51
269.574, 419.66
269.948, 385.06
270.321, 385.06
270.694, 401.2
271.068, 304.33
271.441, 371.22
271.814, 378.14
272.187, 391.98
272.56, 403.51
272.933, 355.07
273.307, 435.8
273.68, 396.59
274.053, 445.03
274.425, 428.88
274.798, 440.42
275.171, 440.42
275.544, 405.82
275.917, 412.74
276.29, 412.74
276.662, 451.95
277.035, 359.68
277.408, 382.75
277.78, 405.82
278.153, 322.78
278.525, 378.14
278.898, 424.27
279.27, 412.74
279.643, 364.3
280.015, 410.43
280.388, 382.75
280.76, 428.88
281.132, 364.3
281.504, 375.83
281.877, 385.06
282.249, 440.42
282.621, 421.96
282.993, 458.87
283.365, 373.52
283.737, 373.52
284.109, 405.82
284.481, 415.04
284.853, 387.36
285.225, 394.28
285.596, 408.12
285.968, 507.31
286.34, 368.91
286.712, 401.2
287.083, 378.14
287.455, 394.28
287.826, 382.75
288.198, 373.52
288.569, 334.31
288.941, 424.27
289.312, 415.04
289.684, 398.9
290.055, 435.8
290.426, 417.35
290.798, 396.59
291.169, 359.68
291.54, 445.03
291.911, 389.67
292.282, 394.28
292.653, 373.52
293.024, 456.56
293.395, 403.51
293.766, 380.44
294.137, 378.14
294.508, 440.42
294.879, 385.06
295.25, 461.17
295.621, 523.45
295.991, 553.44
296.362, 696.45
296.733, 797.94
297.103, 1203.9
297.474, 1508.37
297.844, 1660.6
298.215, 1266.18
298.585, 887.9
298.956, 611.1
299.326, 481.93
299.697, 479.63
300.067, 472.71
300.437, 505
300.807, 440.42
301.177, 449.64
301.548, 488.85
301.918, 458.87
302.288, 475.01
302.658, 433.5
303.028, 521.15
303.398, 424.27
303.768, 378.14
304.138, 449.64
304.507, 475.01
304.877, 454.26
305.247, 502.69
305.617, 534.99
305.986, 456.56
306.356, 606.49
306.726, 615.72
307.095, 675.69
307.465, 802.55
307.834, 961.71
308.204, 1134.7
308.573, 982.47
308.942, 809.47
309.312, 705.67
309.681, 717.21
310.05, 793.32
310.42, 878.67
310.789, 1134.7
311.158, 1404.57
311.527, 1969.69
311.896, 2823.13
312.265, 4523.09
312.634, 7053.43
313.003, 10095.83
313.372, 10686.31
313.741, 8271.31
314.11, 5145.87
314.478, 2493.29
314.847, 1593.71
315.216, 1446.09
315.584, 1621.39
315.953, 1923.56
316.322, 2078.1
316.69, 1720.58
317.059, 1130.09
317.427, 890.2
317.796, 777.18
318.164, 781.79
318.532, 818.7
318.901, 800.24
319.269, 804.86
319.637, 846.38
320.005, 701.06
320.374, 811.78
320.742, 765.65
321.11, 795.63
321.478, 839.46
321.846, 885.59
322.214, 917.88
322.582, 1014.76
322.95, 1118.55
323.317, 1512.98
323.685, 2606.31
324.053, 3489.74
324.421, 3261.38
324.788, 2687.04
325.156, 1909.72
325.524, 1409.19
325.891, 1335.37
326.259, 1376.89
326.626, 1478.38
326.994, 1572.95
327.361, 1600.63
327.728, 1762.1
328.096, 2368.73
328.463, 3000.74
328.83, 4269.36
329.198, 6451.4
329.565, 9992.03
329.932, 13230.49
330.299, 14409.16
330.666, 11911.12
331.033, 7374.04
331.4, 3824.19
331.767, 2209.57
332.134, 1762.1
332.501, 1683.67
332.867, 1556.81
333.234, 1616.78
333.601, 1552.19
333.968, 1536.05
334.334, 1542.97
334.701, 1572.95
335.068, 1764.4
335.434, 1907.41
335.801, 2484.06
336.167, 3074.55
336.533, 4149.42
336.9, 5108.97
337.266, 6416.81
337.632, 6617.48
337.999, 4638.42
338.365, 2467.91
338.731, 1771.32
339.097, 1773.63
339.463, 1819.76
339.829, 1840.52
340.195, 2068.87
340.561, 2186.51
340.927, 2622.46
341.293, 3526.64
341.659, 4167.87
342.025, 4154.03
342.391, 3542.79
342.756, 2645.52
343.122, 1972
343.488, 1775.93
343.853, 1621.39
344.219, 1725.19
344.585, 1660.6
344.95, 1729.8
345.316, 1667.52
345.681, 1646.77
346.046, 1909.72
346.412, 2103.47
346.777, 2465.61
347.142, 2956.91
347.507, 4029.48
347.873, 5512.62
348.238, 7565.49
348.603, 9366.94
348.968, 9925.14
349.333, 8322.05
349.698, 6133.09
350.063, 4022.56
350.428, 2936.15
350.793, 2629.38
351.157, 2449.46
351.522, 2375.65
351.887, 2472.53
352.252, 2562.48
352.616, 2652.44
352.981, 2936.15
353.346, 3300.59
353.71, 3842.64
354.075, 3944.13
354.439, 3420.54
354.803, 2719.33
355.168, 2412.56
355.532, 2460.99
355.896, 2590.16
356.261, 3058.4
356.625, 3611.98
356.989, 4338.56
357.353, 5572.59
357.717, 6702.82
358.081, 7655.45
358.445, 6423.73
358.809, 4656.87
359.173, 4008.72
359.537, 3678.88
359.901, 3385.94
360.265, 3517.41
360.629, 3976.43
360.992, 4246.3
361.356, 4087.14
361.72, 3745.77
362.083, 3134.52
362.447, 2454.07
362.81, 2216.49
363.174, 2094.24
363.537, 2168.06
363.901, 2131.15
364.264, 2214.19
364.627, 2068.87
364.991, 2043.5
365.354, 2098.86
365.717, 2158.83
366.08, 2394.1
366.443, 2714.72
366.806, 3028.42
367.17, 3489.74
367.533, 4119.44
367.895, 4776.82
368.258, 5339.63
368.621, 5874.76
368.984, 6285.33
369.347, 6635.93
369.71, 6522.91
370.072, 5734.05
370.435, 5120.5
370.798, 4430.83
371.16, 4297.04
371.523, 4124.05
371.885, 3646.58
372.248, 3422.84
372.61, 3129.91
372.973, 3049.18
373.335, 2966.14
373.697, 3111.45
374.06, 3099.92
374.422, 3014.58
374.784, 3148.36
375.146, 3208.33
375.508, 3448.22
375.87, 3685.8
376.232, 3132.21
376.594, 2742.4
376.956, 2486.37
377.318, 2643.21
377.68, 2783.92
378.042, 3023.8
378.404, 3388.25
378.765, 3711.17
379.127, 4107.9
379.489, 4354.71
379.85, 4723.76
380.212, 5090.51
380.573, 5796.33
380.935, 6289.94
381.296, 5798.64
381.658, 5950.87
382.019, 6093.88
382.38, 6128.48
382.742, 5766.35
383.103, 5339.63
383.464, 5157.4
383.825, 5062.83
384.186, 4892.15
384.547, 4903.68
384.909, 5258.89
385.27, 5849.38
385.63, 6426.03
385.991, 6331.46
386.352, 6225.36
386.713, 6545.97
387.074, 6804.31
387.435, 7337.14
387.795, 6986.53
388.156, 7053.43
388.517, 9191.64
388.877, 9048.63
389.238, 7041.89
389.598, 6156.16
389.959, 5316.56
390.319, 4804.49
390.679, 4705.31
391.04, 5196.62
391.4, 5796.33
391.76, 5967.02
392.121, 5577.2
392.481, 5272.73
392.841, 4739.91
393.201, 4670.71
393.561, 4714.54
393.921, 5021.31
394.281, 5394.98
394.641, 5710.99
395.001, 5551.83
395.361, 5254.28
395.72, 4933.66
396.08, 4649.95
396.44, 4170.18
396.8, 3768.83
397.159, 3522.03
397.519, 3146.05
397.878, 2929.23
398.238, 2670.89
398.597, 2613.23
398.957, 2610.92
399.316, 2800.06
399.675, 2885.41
400.035, 2866.95
400.394, 2663.97
400.753, 2288
401.112, 2165.75
401.472, 2467.91
401.831, 2818.52
402.19, 3003.04
402.549, 3395.16
402.908, 3879.55
403.267, 4301.66
403.625, 4592.29
403.984, 5044.38
404.343, 5706.37
404.702, 5980.86
405.061, 6077.74
405.419, 6366.06
405.778, 6209.21
406.136, 5907.05
406.495, 5501.09
406.853, 4977.49
407.212, 4723.76
407.57, 4857.55
407.929, 5007.48
408.287, 4956.73
408.645, 4970.57
409.004, 5129.72
409.362, 5316.56
409.72, 5162.02
410.078, 5602.58
410.436, 5890.9
410.794, 6891.96
411.152, 8125.99
411.51, 9915.91
411.868, 11830.39
412.226, 13735.63
412.584, 13677.97
412.942, 9706.01
413.299, 5235.83
413.657, 3794.21
414.015, 3030.72
414.372, 2963.83
414.73, 3122.99
415.088, 3231.4
415.445, 3632.74
415.803, 3729.62
416.16, 4246.3
416.517, 4283.2
416.875, 4453.89
417.232, 4622.27
417.589, 5187.39
417.946, 5436.5
418.304, 5690.23
418.661, 5909.35
419.018, 6213.82
419.375, 6396.05
419.732, 6599.03
420.089, 6624.4
420.446, 6469.86
420.803, 6405.27
421.159, 5897.82
421.516, 5736.36
421.873, 5687.92
422.23, 5422.66
422.586, 4942.89
422.943, 4942.89
423.299, 4866.77
423.656, 4647.65
424.012, 4530.01
424.369, 4128.66
424.725, 3907.23
425.082, 3775.75
425.438, 3718.09
425.794, 3962.59
426.15, 4038.71
426.507, 4426.21
426.863, 4546.16
427.219, 4617.66
427.575, 4444.67
427.931, 4285.51
428.287, 3967.2
428.643, 3690.41
428.999, 3360.57
429.355, 3473.59
429.711, 3263.69
430.066, 3307.51
430.422, 3385.94
430.778, 3480.51
431.133, 3332.89
431.489, 3727.31
431.844, 4038.71
432.2, 4207.09
432.555, 4227.85
432.911, 4486.18
433.266, 4682.25
433.622, 5083.59
433.977, 5272.73
434.332, 5745.59
434.687, 6229.97
435.043, 6202.29
435.398, 6227.66
435.753, 6432.95
436.108, 6564.43
436.463, 6575.96
436.818, 6806.62
437.173, 7468.61
437.528, 8292.07
437.882, 9113.22
438.237, 9646.04
438.592, 9461.51
438.947, 9556.08
439.301, 9429.22
439.656, 8105.23
440.01, 6322.23
440.365, 5039.77
440.72, 4719.15
441.074, 4811.41
441.428, 4809.11
441.783, 4656.87
442.137, 4393.92
442.491, 4264.75
442.846, 3983.35
443.2, 3808.05
443.554, 3579.69
443.908, 3595.84
444.262, 3974.12
444.616, 4036.4
444.97, 4400.84
445.324, 4373.16
445.678, 4649.95
446.032, 4465.43
446.385, 4550.77
446.739, 4668.41
447.093, 4543.85
447.447, 4825.25
447.8, 5152.79
448.154, 5418.05
448.507, 6402.97
448.861, 7443.24
449.214, 9364.63
449.568, 11396.75
449.921, 13892.48
450.274, 17133.25
450.628, 20593.14
450.981, 22913.58
451.334, 20420.15
451.687, 13931.69
452.041, 8940.22
452.394, 7597.78
452.747, 7083.41
453.1, 6852.75
453.453, 6352.22
453.805, 6246.12
454.158, 6285.33
454.511, 5803.25
454.864, 5623.34
455.217, 5454.95
455.569, 5226.6
455.922, 5358.08
456.275, 5424.97
456.627, 5381.14
456.98, 5205.84
457.332, 5132.03
457.684, 4732.99
458.037, 4446.97
458.389, 4532.32
458.741, 4098.68
459.094, 4246.3
459.446, 4262.44
459.798, 4303.96
460.15, 4500.02
460.502, 4398.53
460.854, 4647.65
461.206, 4585.37
461.558, 4472.35
461.91, 4017.95
462.262, 3833.42
462.614, 3731.93
462.966, 3404.39
463.317, 3390.55
463.669, 3249.85
464.021, 3295.98
464.372, 3595.84
464.724, 3778.06
465.075, 4218.62
465.427, 4578.45
465.778, 5141.26
466.13, 5784.8
466.481, 6054.67
466.832, 6026.99
467.183, 5860.92
467.535, 6382.21
467.886, 6951.94
468.237, 7766.16
468.588, 7964.53
468.939, 7747.71
469.29, 7131.85
469.641, 6783.55
469.992, 6573.65
470.343, 6313.01
470.694, 6038.52
471.044, 6024.68
471.395, 6013.15
471.746, 5980.86
472.096, 6156.16
472.447, 5994.7
472.798, 5886.29
473.148, 6223.05
473.499, 6539.05
473.849, 6709.74
474.199, 6329.15
474.55, 6089.27
474.9, 6119.25
475.25, 6675.14
475.6, 6566.73
475.951, 6389.13
476.301, 6509.07
476.651, 7023.44
477.001, 7203.35
477.351, 7390.19
477.701, 7023.44
478.051, 6949.63
478.4, 6705.13
478.75, 7090.33
479.1, 8179.04
479.45, 8882.56
479.799, 9514.56
480.149, 10628.65
480.499, 12679.21
480.848, 14962.74
481.198, 18332.68
481.547, 21361.24
481.897, 26410.38
482.246, 32658.95
482.595, 39931.64
482.945, 46883.72
483.294, 50050.68
483.643, 47642.59
483.992, 33159.48
484.341, 15191.1
484.69, 8905.62
485.039, 7625.46
485.388, 7436.32
485.737, 7588.56
486.086, 7803.07
486.435, 8301.29
486.784, 8762.61
487.132, 8958.67
487.481, 9242.39
487.83, 9313.89
488.178, 9369.25
488.527, 9636.81
488.876, 10038.16
489.224, 10065.84
489.572, 9551.47
489.921, 9703.7
490.269, 9579.15
490.618, 9438.45
490.966, 9300.05
491.314, 8974.82
491.662, 8548.1
492.01, 8176.74
492.358, 8086.78
492.706, 7625.46
493.054, 7542.42
493.402, 7148
493.75, 7263.33
494.098, 7572.41
494.446, 7291.01
494.794, 7184.9
495.142, 6901.19
495.489, 6857.37
495.837, 6758.18
496.184, 7272.55
496.532, 7828.44
496.88, 7597.78
497.227, 7424.79
497.574, 7406.33
497.922, 7088.02
498.269, 7152.61
498.616, 7203.35
498.964, 6739.73
499.311, 7007.29
499.658, 7189.51
500.005, 7549.34
500.352, 8100.62
500.699, 7572.41
501.046, 7180.29
501.393, 6723.58
501.74, 6368.37
502.087, 5964.71
502.434, 5761.73
502.78, 5450.34
503.127, 5784.8
503.474, 6506.76
503.82, 7124.93
504.167, 7406.33
504.513, 7703.89
504.86, 8243.63
505.206, 9302.36
505.553, 9583.76
505.899, 10356.47
506.245, 9973.58
506.592, 9537.63
506.938, 9906.68
507.284, 10485.64
507.63, 10976.95
507.976, 10854.7
508.322, 10504.09
508.668, 10001.26
509.014, 9316.2
509.36, 8926.38
509.706, 8781.07
510.052, 8407.4
510.398, 8123.69
510.743, 7496.29
511.089, 7258.71
511.435, 7127.24
511.78, 7590.86
512.126, 8139.83
512.471, 8568.86
512.817, 9240.08
513.162, 10008.18
513.508, 10397.99
513.853, 10529.47
514.198, 11385.21
514.543, 12070.27
514.889, 12496.99
515.234, 12584.64
515.579, 13269.7
515.924, 14070.09
516.269, 15627.04
516.614, 17855.21
516.959, 20454.75
517.304, 22491.47
517.648, 25598.46
517.993, 29385.89
518.338, 34887.12
518.683, 40600.56
519.027, 46851.43
519.372, 51863.66
519.716, 54310.96
520.061, 51180.91
520.405, 33051.07
520.75, 14416.08
521.094, 8098.31
521.439, 6326.85
521.783, 6151.55
522.127, 6479.08
522.471, 6308.4
522.815, 5849.38
523.159, 6080.04
523.504, 6536.75
523.848, 6594.41
524.192, 7390.19
524.535, 7593.17
524.879, 7759.24
525.223, 7876.88
525.567, 8303.6
525.911, 8677.27
526.254, 8977.13
526.598, 8940.22
526.942, 8884.86
527.285, 8340.51
527.629, 7946.08
527.972, 7814.6
528.316, 7325.6
528.659, 7320.99
529.002, 6915.03
529.346, 6728.2
529.689, 6499.84
530.032, 6255.34
530.375, 6170
530.718, 6349.91
531.061, 6617.48
531.404, 7028.05
531.747, 7251.79
532.09, 7016.52
532.433, 7037.28
532.776, 7314.07
533.119, 7334.83
533.461, 7773.08
533.804, 7775.39
534.147, 7657.75
534.489, 7846.89
534.832, 7869.96
535.174, 7798.46
535.517, 8008.36
535.859, 8442
536.202, 8089.09
536.544, 7819.22
536.886, 7115.7
537.229, 6808.93
537.571, 6951.94
537.913, 7108.78
538.255, 7111.09
538.597, 7069.57
538.939, 7251.79
539.281, 7060.35
539.623, 7184.9
539.965, 7002.68
540.307, 6649.77
540.648, 5854
540.99, 5556.45
541.332, 5443.42
541.674, 5480.33
542.015, 5498.78
542.357, 5478.02
542.698, 5399.6
543.04, 5521.85
543.381, 5480.33
543.722, 5512.62
544.064, 5374.22
544.405, 5547.22
544.746, 5394.98
545.087, 5388.06
545.429, 5367.3
545.77, 5376.53
546.111, 5376.53
546.452, 5752.51
546.793, 5678.69
547.134, 5780.18
547.474, 5794.02
547.815, 5531.07
548.156, 5168.94
548.497, 4975.18
548.837, 4822.95
549.178, 5014.4
549.519, 4910.6
549.859, 4952.12
550.2, 4707.62
550.54, 4756.06
550.881, 5062.83
551.221, 5090.51
551.561, 5341.93
551.901, 5381.14
552.242, 5353.46
552.582, 5383.45
552.922, 5567.98
553.262, 5904.74
553.602, 6437.56
553.942, 6820.46
554.282, 6968.08
554.622, 7263.33
554.962, 7274.86
555.302, 7574.72
555.641, 7978.37
555.981, 8813.36
556.321, 9431.53
556.66, 9519.18
557, 9964.35
557.339, 10684.01
557.679, 11475.17
558.018, 12250.19
558.358, 13581.09
558.697, 15347.94
559.036, 17359.3
559.376, 19324.52
559.715, 21981.71
560.054, 25072.55
560.393, 28267.19
560.732, 31381.09
561.071, 31510.26
561.41, 28193.38
561.749, 17716.82
562.088, 9313.89
562.427, 6391.43
562.766, 6183.84
563.104, 6121.56
563.443, 5773.27
563.782, 5630.26
564.12, 5683.31
564.459, 5602.58
564.797, 5537.99
565.136, 5812.48
565.474, 6086.96
565.813, 5941.65
566.151, 5676.39
566.489, 5962.41
566.827, 6675.14
567.166, 7288.7
567.504, 7842.28
567.842, 8656.51
568.18, 8716.48
568.518, 8531.95
568.856, 8312.83
569.194, 8312.83
569.531, 8319.75
569.869, 8026.81
570.207, 7473.23
570.545, 7030.36
570.882, 6725.89
571.22, 6181.53
571.558, 5807.86
571.895, 5484.94
572.233, 5074.37
572.57, 4760.67
572.907, 4691.47
573.245, 4403.15
573.582, 4430.83
573.919, 4257.83
574.257, 4147.12
574.594, 3960.28
574.931, 3932.6
575.268, 4075.61
575.605, 4333.95
575.942, 4398.53
576.279, 4403.15
576.616, 4601.51
576.952, 4723.76
577.289, 4705.31
577.626, 4751.44
577.963, 4952.12
578.299, 5074.37
578.636, 5203.54
578.972, 5374.22
579.309, 5069.75
579.645, 5083.59
579.982, 5023.62
580.318, 4926.74
580.654, 4975.18
580.991, 5002.86
581.327, 4871.39
581.663, 4878.31
581.999, 4686.86
582.335, 4444.67
582.671, 3683.49
583.007, 3344.42
583.343, 3169.12
583.679, 3335.19
584.015, 3136.83
584.351, 3355.95
584.686, 3480.51
585.022, 3411.31
585.358, 3438.99
585.693, 3552.01
586.029, 3625.82
586.364, 3591.23
586.7, 3741.15
587.035, 3902.62
587.371, 3930.3
587.706, 3999.49
588.041, 4080.22
588.376, 3983.35
588.712, 4077.92
589.047, 4220.93
