wavelength, amplitude
179.267, 16.46
179.649, 16.46
180.031, 16.46
180.413, -56.82
180.795, -66.05
181.177, -52.21
181.559, -52.56
181.941, -71.37
182.323, -49.37
182.705, -47.77
183.087, -57.35
183.469, -45.11
183.85, -18.14
184.232, -6.43
184.614, 15.57
184.995, 21.6
185.377, 36.33
185.759, 43.43
186.14, 73.06
186.522, 98.43
186.903, 111.91
187.285, 118.3
187.666, 135.69
188.047, 159.47
188.429, 219.44
188.81, 196.9
189.191, 218.55
189.573, 234.16
189.954, 254.92
190.335, 254.21
190.716, 268.76
191.097, 300.17
191.478, 300.52
191.859, 319.86
192.24, 339.2
192.621, 342.4
193.002, 343.99
193.383, 363.16
193.764, 356.95
194.145, 362.27
194.526, 349.67
194.906, 385.87
195.287, 377
195.668, 371.85
196.048, 380.54
196.429, 382.67
196.81, 380.9
197.19, 387.11
197.571, 365.82
197.951, 380.37
198.331, 373.62
198.712, 391.01
199.092, 382.85
199.472, 392.08
199.853, 395.98
200.233, 375.58
200.613, 356.06
200.993, 359.61
201.373, 378.41
201.754, 361.56
202.134, 364.93
202.514, 349.85
202.894, 365.64
203.274, 366.53
203.654, 357.66
204.033, 369.37
204.413, 357.83
204.793, 350.74
205.173, 362.27
205.553, 347.72
205.932, 343.82
206.312, 347.01
206.692, 377
207.071, 347.19
207.451, 335.12
207.83, 332.99
208.21, 356.06
208.589, 354.11
208.969, 341.33
209.348, 360.49
209.727, 340.8
210.107, 331.4
210.486, 348.96
210.865, 332.46
211.244, 353.04
211.623, 337.43
212.003, 329.09
212.382, 328.91
212.761, 340.27
213.14, 340.27
213.519, 355.35
213.898, 347.01
214.276, 330.33
214.655, 353.57
215.034, 348.07
215.413, 350.2
215.792, 349.49
216.17, 362.45
216.549, 343.28
216.928, 350.91
217.306, 359.07
217.685, 340.27
218.064, 336.01
218.442, 355.35
218.82, 351.98
219.199, 356.59
219.577, 353.93
219.956, 354.46
220.334, 348.07
220.712, 348.25
221.091, 358.19
221.469, 343.11
221.847, 358.01
222.225, 356.06
222.603, 356.77
222.981, 339.73
223.359, 361.74
223.737, 357.48
224.115, 364.4
224.493, 362.27
224.871, 355.88
225.249, 382.32
225.627, 378.59
226.004, 378.24
226.382, 375.58
226.76, 336.72
227.137, 360.32
227.515, 355.7
227.893, 368.83
228.27, 346.83
228.648, 363.16
229.025, 363.51
229.403, 359.78
229.78, 365.64
230.157, 373.27
230.535, 369.19
230.912, 358.37
231.289, 362.62
231.667, 381.96
232.044, 363.16
232.421, 368.3
232.798, 376.46
233.175, 364.75
233.552, 354.11
233.929, 353.22
234.306, 366.35
234.683, 361.03
235.06, 375.58
235.437, 356.24
235.814, 373.09
236.19, 360.14
236.567, 366.35
236.944, 367.77
237.32, 375.58
237.697, 367.59
238.074, 367.06
238.45, 383.92
238.827, 356.95
239.203, 357.66
239.58, 359.25
239.956, 362.45
240.332, 372.2
240.709, 384.09
241.085, 371.14
241.461, 358.37
241.838, 361.38
242.214, 375.4
242.59, 383.56
242.966, 380.72
243.342, 370.96
243.718, 367.59
244.094, 375.93
244.47, 356.59
244.846, 370.43
245.222, 370.96
245.598, 385.33
245.973, 381.79
246.349, 374.87
246.725, 381.79
247.101, 370.25
247.476, 372.91
247.852, 374.33
248.228, 368.3
248.603, 381.61
248.979, 371.32
249.354, 380.72
249.73, 359.96
250.105, 361.03
250.48, 372.38
250.856, 371.67
251.231, 376.46
251.606, 378.95
251.981, 378.06
252.357, 366.17
252.732, 348.07
253.107, 351.8
253.482, 374.51
253.857, 375.93
254.232, 377
254.607, 380.54
254.982, 386.58
255.357, 376.46
255.731, 367.95
256.106, 383.03
256.481, 371.14
256.856, 364.4
257.23, 377.88
257.605, 378.77
257.98, 377
258.354, 379.48
258.729, 373.62
259.103, 366.35
259.478, 392.08
259.852, 375.4
260.227, 373.8
260.601, 378.41
260.975, 379.48
261.35, 393.32
261.724, 383.56
262.098, 371.49
262.472, 362.8
262.846, 372.38
263.22, 380.54
263.594, 388.17
263.968, 386.04
264.342, 378.06
264.716, 385.51
265.09, 389.42
265.464, 372.91
265.838, 397.75
266.212, 364.75
266.586, 386.04
266.959, 373.98
267.333, 368.83
267.707, 383.21
268.08, 381.96
268.454, 383.03
268.827, 374.69
269.201, 405.56
269.574, 390.83
269.948, 383.56
270.321, 380.37
270.694, 378.41
271.068, 373.27
271.441, 365.82
271.814, 391.01
272.187, 360.14
272.56, 370.96
272.933, 383.21
273.307, 378.95
273.68, 372.2
274.053, 402.01
274.425, 380.01
274.798, 380.54
275.171, 382.32
275.544, 365.11
275.917, 402.55
276.29, 386.4
276.662, 377
277.035, 401.48
277.408, 374.33
277.78, 371.67
278.153, 386.58
278.525, 398.64
278.898, 386.58
279.27, 377.71
279.643, 367.77
280.015, 400.59
280.388, 389.06
280.76, 386.75
281.132, 389.06
281.504, 389.06
281.877, 377.88
282.249, 375.58
282.621, 388
282.993, 388.17
283.365, 381.79
283.737, 373.09
284.109, 391.19
284.481, 384.98
284.853, 372.2
285.225, 368.83
285.596, 391.9
285.968, 380.54
286.34, 381.61
286.712, 383.56
287.083, 378.41
287.455, 388.71
287.826, 386.58
288.198, 393.5
288.569, 395.8
288.941, 388.88
289.312, 382.5
289.684, 390.48
290.055, 360.67
290.426, 389.77
290.798, 380.54
291.169, 401.13
291.54, 396.34
291.911, 399.35
292.282, 395.98
292.653, 383.38
293.024, 382.14
293.395, 401.84
293.766, 385.33
294.137, 379.66
294.508, 380.9
294.879, 383.21
295.25, 390.13
295.621, 397.93
295.991, 399.17
296.362, 383.56
296.733, 396.16
297.103, 393.5
297.474, 385.87
297.844, 400.42
298.215, 406.98
298.585, 381.79
298.956, 399
299.326, 364.58
299.697, 380.01
300.067, 395.09
300.437, 397.75
300.807, 394.21
301.177, 379.66
301.548, 381.43
301.918, 378.24
302.288, 377.71
302.658, 375.22
303.028, 394.03
303.398, 396.34
303.768, 398.29
304.138, 391.19
304.507, 387.11
304.877, 405.38
305.247, 384.09
305.617, 408.05
305.986, 405.74
306.356, 398.64
306.726, 405.21
307.095, 411.77
307.465, 409.11
307.834, 424.55
308.204, 433.06
308.573, 415.14
308.942, 433.42
309.312, 431.47
309.681, 447.97
310.05, 466.07
310.42, 446.02
310.789, 461.98
311.158, 498.18
311.527, 558.86
311.896, 571.1
312.265, 616.53
312.634, 618.66
313.003, 621.49
313.372, 549.1
313.741, 527.1
314.11, 502.26
314.478, 507.23
314.847, 544.49
315.216, 584.94
315.584, 610.67
315.953, 569.86
316.322, 494.45
316.69, 439.45
317.059, 435.19
317.427, 421.89
317.796, 427.21
318.164, 425.97
318.532, 422.06
318.901, 432.53
319.269, 449.21
319.637, 422.77
320.005, 416.56
320.374, 423.66
320.742, 430.76
321.11, 427.03
321.478, 443.71
321.846, 469.26
322.214, 476.71
322.582, 493.74
322.95, 519.65
323.317, 523.2
323.685, 505.99
324.053, 505.28
324.421, 471.03
324.788, 470.86
325.156, 457.73
325.524, 478.31
325.891, 491.79
326.259, 501.55
326.626, 530.12
326.994, 506.16
327.361, 528.7
327.728, 576.43
328.096, 639.24
328.463, 704.89
328.83, 796.26
329.198, 825.36
329.565, 835.3
329.932, 759.71
330.299, 652.01
330.666, 570.39
331.033, 482.03
331.4, 450.81
331.767, 433.24
332.134, 453.11
332.501, 467.48
332.867, 455.42
333.234, 488.07
333.601, 490.37
333.968, 502.26
334.334, 549.99
334.701, 596.65
335.068, 706.48
335.434, 865.11
335.801, 1040.41
336.167, 1250.31
336.533, 1470.85
336.9, 1433.95
337.266, 1086.54
337.632, 666.74
337.999, 516.46
338.365, 481.86
338.731, 485.41
339.097, 464.47
339.463, 476.71
339.829, 506.34
340.195, 522.31
340.561, 567.56
340.927, 593.64
341.293, 602.51
341.659, 571.64
342.025, 526.75
342.391, 468.02
342.756, 475.47
343.122, 476.18
343.488, 470.68
343.853, 471.92
344.219, 492.86
344.585, 486.29
344.95, 461.1
345.316, 483.63
345.681, 488.78
346.046, 493.57
346.412, 538.46
346.777, 579.98
347.142, 632.32
347.507, 713.94
347.873, 764.15
348.238, 788.63
348.603, 736.11
348.968, 692.11
349.333, 625.04
349.698, 573.06
350.063, 563.83
350.428, 527.1
350.793, 541.3
351.157, 551.76
351.522, 617.06
351.887, 662.3
352.252, 756.34
352.616, 851.8
352.981, 959.5
353.346, 980.97
353.71, 820.22
354.075, 652.19
354.439, 570.22
354.803, 569.33
355.168, 641.72
355.532, 717.48
355.896, 867.06
356.261, 1040.41
356.625, 1261.84
356.989, 1470.68
357.353, 1528.87
357.717, 1211.45
358.081, 785.97
358.445, 574.3
358.809, 543.25
359.173, 551.23
359.537, 558.51
359.901, 603.04
360.265, 595.06
360.629, 617.06
360.992, 572.35
361.356, 533.13
361.72, 515.39
362.083, 503.33
362.447, 470.15
362.81, 514.68
363.174, 514.5
363.537, 519.29
363.901, 524.97
364.264, 504.21
364.627, 494.1
364.991, 503.68
365.354, 505.63
365.717, 537.75
366.08, 584.41
366.443, 629.66
366.806, 663.72
367.17, 666.03
367.533, 638.35
367.895, 642.96
368.258, 689.1
368.621, 703.82
368.984, 730.26
369.347, 742.32
369.71, 740.2
370.072, 757.58
370.435, 791.3
370.798, 744.99
371.16, 674.55
371.523, 590.44
371.885, 541.65
372.248, 559.04
372.61, 568.27
372.973, 598.43
373.335, 626.46
373.697, 682.53
374.06, 771.42
374.422, 798.04
374.784, 916.74
375.146, 918.51
375.508, 789.52
375.87, 617.77
376.232, 515.75
376.594, 520.18
376.956, 516.81
377.318, 554.43
377.68, 563.12
378.042, 618.66
378.404, 644.21
378.765, 726
379.127, 799.28
379.489, 880.9
379.85, 967.84
380.212, 946.01
380.573, 839.56
380.935, 666.56
381.296, 625.4
381.658, 625.4
382.019, 613.51
382.38, 574.83
382.742, 581.4
383.103, 518.41
383.464, 541.3
383.825, 551.05
384.186, 566.49
384.547, 568.62
384.909, 588.67
385.27, 620.08
385.63, 561.52
385.991, 536.33
386.352, 511.49
386.713, 529.59
387.074, 537.39
387.435, 568.62
387.795, 616.35
388.156, 671.35
388.517, 672.06
388.877, 727.95
389.238, 700.1
389.598, 634.8
389.959, 597.19
390.319, 591.51
390.679, 620.08
391.04, 624.69
391.4, 631.25
391.76, 609.96
392.121, 623.09
392.481, 667.27
392.841, 682.18
393.201, 735.4
393.561, 795.02
393.921, 873.98
394.281, 966.42
394.641, 886.93
395.001, 800.7
395.361, 654.5
395.72, 582.64
396.08, 569.86
396.44, 580.51
396.8, 602.51
397.159, 573.94
397.519, 566.14
397.878, 553.18
398.238, 595.94
398.597, 625.58
398.957, 657.16
399.316, 685.72
399.675, 652.19
400.035, 558.86
400.394, 497.83
400.753, 484.34
401.112, 490.02
401.472, 519.65
401.831, 504.92
402.19, 528.17
402.549, 549.81
402.908, 579.44
403.267, 588.14
403.625, 627.35
403.984, 646.51
404.343, 671
404.702, 695.31
405.061, 716.77
405.419, 745.16
405.778, 690.34
406.136, 611.56
406.495, 579.44
406.853, 575.36
407.212, 565.07
407.57, 575.01
407.929, 589.91
408.287, 617.77
408.645, 617.24
409.004, 674.01
409.362, 706.48
409.72, 818.8
410.078, 835.65
410.436, 842.93
410.794, 855.7
411.152, 927.03
411.51, 1021.6
411.868, 1032.42
412.226, 891.01
412.584, 690.51
412.942, 594.53
413.299, 576.78
413.657, 575.72
414.015, 553.18
414.372, 521.78
414.73, 514.68
415.088, 515.39
415.445, 538.63
415.803, 533.84
416.16, 548.22
416.517, 570.04
416.875, 561.52
417.232, 588.14
417.589, 599.85
417.946, 617.06
418.304, 636.93
418.661, 657.69
419.018, 684.48
419.375, 676.32
419.732, 702.76
420.089, 676.32
420.446, 619.37
420.803, 601.62
421.159, 551.41
421.516, 547.51
421.873, 543.96
422.23, 545.55
422.586, 543.43
422.943, 563.83
423.299, 538.99
423.656, 546.97
424.012, 517.34
424.369, 531.18
424.725, 542.01
425.082, 551.76
425.438, 545.91
425.794, 581.57
426.15, 581.57
426.507, 597.36
426.863, 560.81
427.219, 537.39
427.575, 524.62
427.931, 497.29
428.287, 479.02
428.643, 480.61
428.999, 484.16
429.355, 491.08
429.711, 503.15
430.066, 525.15
430.422, 528.34
430.778, 532.42
431.133, 551.76
431.489, 544.13
431.844, 546.26
432.2, 555.49
432.555, 596.3
432.911, 696.37
433.266, 915.5
433.622, 1387.82
433.977, 1420.64
434.332, 1149.53
434.687, 762.55
435.043, 656.8
435.398, 680.4
435.753, 768.05
436.108, 984.69
436.463, 1411.41
436.818, 1436.61
437.173, 1119.36
437.528, 840.62
437.882, 786.33
438.237, 814.89
438.592, 812.59
438.947, 780.12
439.301, 670.64
439.656, 580.69
440.01, 549.99
440.365, 552.65
440.72, 562.59
441.074, 564.18
441.428, 546.8
441.783, 531
442.137, 521.25
442.491, 517.52
442.846, 516.63
443.2, 502.97
443.554, 500.31
443.908, 515.39
444.262, 510.07
444.616, 515.39
444.97, 532.96
445.324, 520.54
445.678, 526.21
446.032, 528.52
446.385, 542.01
446.739, 553.54
447.093, 555.67
447.447, 588.67
447.8, 612.8
448.154, 649
448.507, 681.11
448.861, 716.24
449.214, 809.04
449.568, 840.09
449.921, 902.54
450.274, 973.69
450.628, 974.05
450.981, 858.36
451.334, 690.51
451.687, 626.64
452.041, 587.43
452.394, 586.19
452.747, 574.48
453.1, 573.77
453.453, 567.02
453.805, 560.64
454.158, 559.57
454.511, 576.78
454.864, 555.67
455.217, 580.15
455.569, 553.72
455.922, 564.72
456.275, 566.31
456.627, 568.44
456.98, 562.23
457.332, 552.3
457.684, 531.71
458.037, 550.17
458.389, 539.7
458.741, 526.92
459.094, 507.58
459.446, 520
459.798, 534.73
460.15, 517.88
460.502, 524.97
460.854, 515.92
461.206, 501.55
461.558, 492.68
461.91, 479.55
462.262, 495.34
462.614, 488.07
462.966, 490.2
463.317, 485.58
463.669, 499.24
464.021, 508.29
464.372, 516.28
464.724, 528.17
465.075, 532.96
465.427, 550.34
465.778, 558.33
466.13, 586.9
466.481, 544.67
466.832, 568.98
467.183, 563.12
467.535, 575.72
467.886, 583.17
468.237, 606.59
468.588, 615.46
468.939, 586.72
469.29, 575.01
469.641, 574.83
469.992, 558.86
470.343, 548.39
470.694, 567.56
471.044, 576.25
471.395, 567.38
471.746, 562.59
472.096, 570.57
472.447, 567.02
472.798, 574.83
473.148, 569.33
473.499, 572.52
473.849, 564.72
474.199, 565.78
474.55, 579.62
474.9, 571.1
475.25, 600.38
475.6, 582.1
475.951, 602.15
476.301, 611.2
476.651, 630.37
477.001, 604.82
477.351, 606.77
477.701, 620.61
478.051, 618.3
478.4, 646.51
478.75, 663.01
479.1, 698.68
479.45, 767.7
479.799, 789.34
480.149, 851.44
480.499, 943.89
480.848, 1004.92
481.198, 1093.64
481.547, 1234.87
481.897, 1386.93
482.246, 1543.78
482.595, 1694.24
482.945, 1676.67
483.294, 1360.67
483.643, 1014.15
483.992, 732.74
484.341, 664.08
484.69, 850.91
485.039, 1578.73
485.388, 4162.12
485.737, 10576.76
486.086, 10573.21
486.435, 6676.66
486.784, 2072.34
487.132, 968.02
487.481, 766.99
487.83, 708.26
488.178, 677.03
488.527, 668.16
488.876, 673.84
489.224, 665.85
489.572, 657.51
489.921, 651.84
490.269, 628.41
490.618, 645.8
490.966, 645.63
491.314, 651.48
491.662, 635.69
492.01, 598.43
492.358, 585.65
492.706, 608.72
493.054, 614.93
493.402, 605.35
493.75, 593.99
494.098, 603.04
494.446, 619.9
494.794, 608.9
495.142, 577.31
495.489, 632.14
495.837, 623.98
496.184, 676.32
496.532, 713.76
496.88, 715
497.227, 686.43
497.574, 641.72
497.922, 608.19
498.269, 583.17
498.616, 593.28
498.964, 600.2
499.311, 627.7
499.658, 636.04
500.005, 629.48
500.352, 607.65
500.699, 619.54
501.046, 620.25
501.393, 617.06
501.74, 639.06
502.087, 638.53
502.434, 597.01
502.78, 581.57
503.127, 603.57
503.474, 607.12
503.82, 630.01
504.167, 627.53
504.513, 653.61
504.86, 656.45
505.206, 669.05
505.553, 675.08
505.899, 697.43
506.245, 666.74
506.592, 691.93
506.938, 694.42
507.284, 720.68
507.63, 711.1
507.976, 700.1
508.322, 684.84
508.668, 644.21
509.014, 647.22
509.36, 636.04
509.706, 656.09
510.052, 614.93
510.398, 608.01
510.743, 604.28
511.089, 626.29
511.435, 630.54
511.78, 626.64
512.126, 634.98
512.471, 649.71
512.817, 678.27
513.162, 701.52
513.508, 718.19
513.853, 724.94
514.198, 769.65
514.543, 745.16
514.889, 769.83
515.234, 782.6
515.579, 841.51
515.924, 861.74
516.269, 932.88
516.614, 987
516.959, 1056.02
517.304, 1179.87
517.648, 1285.08
517.993, 1415.32
518.338, 1564.71
518.683, 1670.82
519.027, 1805.49
519.372, 1716.24
519.716, 1363.69
520.061, 906.8
520.405, 635.16
520.75, 555.67
521.094, 548.04
521.439, 572.7
521.783, 589.2
522.127, 552.3
522.471, 560.28
522.815, 571.64
523.159, 572.35
523.504, 587.43
523.848, 582.99
524.192, 612.98
524.535, 594.7
524.879, 619.72
525.223, 623.62
525.567, 648.64
525.911, 624.51
526.254, 631.43
526.598, 625.58
526.942, 626.11
527.285, 628.77
527.629, 619.54
527.972, 595.77
528.316, 573.94
528.659, 591.33
529.002, 571.46
529.346, 574.83
529.689, 591.33
530.032, 578.56
530.375, 598.25
530.718, 589.38
531.061, 602.51
531.404, 604.46
531.747, 617.77
532.09, 664.61
532.433, 903.79
532.776, 1112.27
533.119, 1050.17
533.461, 825.01
533.804, 667.63
534.147, 634.27
534.489, 631.96
534.832, 642.96
535.174, 658.05
535.517, 654.67
535.859, 617.77
536.202, 633.74
536.544, 622.74
536.886, 615.64
537.229, 642.43
537.571, 626.11
537.913, 636.04
538.255, 622.03
538.597, 643.67
538.939, 669.22
539.281, 639.95
539.623, 631.08
539.965, 591.86
540.307, 581.57
540.648, 565.96
540.99, 554.43
541.332, 563.3
541.674, 548.75
542.015, 550.88
542.357, 574.48
542.698, 587.07
543.04, 690.69
543.381, 829.44
543.722, 800.52
544.064, 691.05
544.405, 575.36
544.746, 570.93
545.087, 560.99
545.429, 567.38
545.77, 563.12
546.111, 576.96
546.452, 584.41
546.793, 563.47
547.134, 563.12
547.474, 552.3
547.815, 545.38
548.156, 539.34
548.497, 533.67
548.837, 542.54
549.178, 535.8
549.519, 540.59
549.859, 545.73
550.2, 540.23
550.54, 554.78
550.881, 560.28
551.221, 577.67
551.561, 575.36
551.901, 573.59
552.242, 559.75
552.582, 601.44
552.922, 564.54
553.262, 604.82
553.602, 588.85
553.942, 605.17
554.282, 627.53
554.622, 613.69
554.962, 663.9
555.302, 698.5
555.641, 711.63
555.981, 703.29
556.321, 704.89
556.66, 703.47
557, 747.29
557.339, 744.28
557.679, 790.23
558.018, 825.18
558.358, 848.96
558.697, 915.14
559.036, 956.13
559.376, 1013.79
559.715, 1104.28
560.054, 1162.13
560.393, 1211.1
560.732, 1051.94
561.071, 837.43
561.41, 672.06
561.749, 577.14
562.088, 568.27
562.427, 575.19
562.766, 561.17
563.104, 562.23
563.443, 546.62
563.782, 553.01
564.12, 531.71
564.459, 553.36
564.797, 561.17
565.136, 567.02
565.474, 555.67
565.813, 567.56
566.151, 575.36
566.489, 592.04
566.827, 584.77
567.166, 590.62
567.504, 615.64
567.842, 613.33
568.18, 592.57
568.518, 577.14
568.856, 583.88
569.194, 598.78
569.531, 575.19
569.869, 571.81
570.207, 559.75
570.545, 544.13
570.882, 540.76
571.22, 527.81
571.558, 529.23
571.895, 506.52
572.233, 505.81
572.57, 505.99
572.907, 510.96
573.245, 526.04
573.582, 494.99
573.919, 529.76
574.257, 510.6
574.594, 506.16
574.931, 534.38
575.268, 520.89
575.605, 528.34
575.942, 540.05
576.279, 555.14
576.616, 523.73
576.952, 550.7
577.289, 541.3
577.626, 551.94
577.963, 552.47
578.299, 560.64
578.636, 544.13
578.972, 559.39
579.309, 572.7
579.645, 582.1
579.982, 576.25
580.318, 580.51
580.654, 579.98
580.991, 598.43
581.327, 581.4
581.663, 543.96
581.999, 534.73
582.335, 511.84
582.671, 487
583.007, 480.44
583.343, 488.42
583.679, 507.41
584.015, 480.97
584.351, 478.84
584.686, 495.16
585.022, 490.73
585.358, 488.07
585.693, 498.89
586.029, 500.84
586.364, 498.89
586.7, 523.55
587.035, 515.39
587.371, 500.31
587.706, 496.94
588.041, 490.2
588.376, 491.08
588.712, 507.41
589.047, 506.7
589.382, 522.67
589.717, 507.94
590.052, 496.41
590.387, 498.36
590.722, 507.94
591.057, 498.89
591.391, 491.44
591.726, 490.91
592.061, 498.18
592.395, 493.92
592.73, 485.94
593.065, 486.47
593.399, 494.99
593.734, 491.44
594.068, 485.76
594.402, 476.71
594.737, 484.52
595.071, 484.52
595.405, 542.36
595.739, 578.2
596.074, 567.02
596.408, 512.37
596.742, 503.33
597.076, 484.34
597.41, 491.26
597.744, 505.99
598.077, 511.13
598.411, 518.58
598.745, 523.73
599.079, 535.97
599.412, 566.85
599.746, 547.68
600.079, 556.91
600.413, 557.97
600.746, 571.1
601.08, 595.41
601.413, 584.94
601.747, 601.8
602.08, 592.57
602.413, 586.54
602.746, 594.53
603.079, 616.53
603.412, 633.03
603.746, 641.19
604.079, 720.15
604.411, 784.73
604.744, 784.55
605.077, 721.39
605.41, 668.16
605.743, 680.4
