wavelength, amplitude
179.267, -33.01
179.649, -33.01
180.031, -33.01
180.413, -7.64
180.795, -7.64
181.177, -72.23
181.559, -19.17
181.941, -33.01
182.323, -139.12
182.705, -56.08
183.087, -92.98
183.469, -37.63
183.85, 43.1
184.232, -0.72
184.614, -46.85
184.995, 63.86
185.377, 45.41
185.759, 43.1
186.14, 40.8
186.522, 105.38
186.903, 156.13
187.285, 110
187.666, 121.53
188.047, 121.53
188.429, 167.66
188.81, 119.22
189.191, 151.51
189.573, 243.78
189.954, 289.91
190.335, 229.94
190.716, 299.14
191.097, 301.44
191.478, 398.32
191.859, 310.67
192.24, 322.2
192.621, 366.03
193.002, 329.12
193.383, 285.3
193.764, 338.35
194.145, 349.88
194.526, 398.32
194.906, 352.19
195.287, 386.79
195.668, 352.19
196.048, 405.24
196.429, 317.59
196.81, 428.31
197.19, 354.49
197.571, 386.79
197.951, 368.33
198.331, 379.87
198.712, 370.64
199.092, 375.25
199.472, 400.63
199.853, 372.95
200.233, 345.27
200.613, 377.56
200.993, 370.64
201.373, 384.48
201.754, 393.71
202.134, 384.48
202.514, 377.56
202.894, 363.72
203.274, 389.09
203.654, 366.03
204.033, 393.71
204.413, 382.17
204.793, 389.09
205.173, 312.98
205.553, 342.96
205.932, 407.55
206.312, 389.09
206.692, 377.56
207.071, 382.17
207.451, 396.01
207.83, 340.66
208.21, 386.79
208.589, 391.4
208.969, 361.41
209.348, 276.07
209.727, 354.49
210.107, 359.11
210.486, 352.19
210.865, 349.88
211.244, 354.49
211.623, 306.06
212.003, 368.33
212.382, 354.49
212.761, 359.11
213.14, 361.41
213.519, 322.2
213.898, 386.79
214.276, 384.48
214.655, 308.36
215.034, 308.36
215.413, 368.33
215.792, 382.17
216.17, 319.9
216.549, 342.96
216.928, 379.87
217.306, 400.63
217.685, 393.71
218.064, 338.35
218.442, 363.72
218.82, 372.95
219.199, 435.23
219.577, 269.15
219.956, 347.58
220.334, 301.44
220.712, 366.03
221.091, 372.95
221.469, 345.27
221.847, 361.41
222.225, 366.03
222.603, 333.74
222.981, 389.09
223.359, 352.19
223.737, 331.43
224.115, 282.99
224.493, 299.14
224.871, 391.4
225.249, 423.69
225.627, 289.91
226.004, 361.41
226.382, 324.51
226.76, 329.12
227.137, 363.72
227.515, 407.55
227.893, 312.98
228.27, 354.49
228.648, 370.64
229.025, 389.09
229.403, 345.27
229.78, 382.17
230.157, 407.55
230.535, 363.72
230.912, 303.75
231.289, 356.8
231.667, 306.06
232.044, 437.53
232.421, 361.41
232.798, 368.33
233.175, 342.96
233.552, 368.33
233.929, 384.48
234.306, 349.88
234.683, 391.4
235.06, 363.72
235.437, 368.33
235.814, 402.93
236.19, 322.2
236.567, 347.58
236.944, 402.93
237.32, 354.49
237.697, 375.25
238.074, 359.11
238.45, 375.25
238.827, 338.35
239.203, 361.41
239.58, 370.64
239.956, 359.11
240.332, 361.41
240.709, 342.96
241.085, 391.4
241.461, 359.11
241.838, 419.08
242.214, 340.66
242.59, 400.63
242.966, 370.64
243.342, 363.72
243.718, 356.8
244.094, 428.31
244.47, 426
244.846, 451.37
245.222, 421.39
245.598, 389.09
245.973, 430.61
246.349, 396.01
246.725, 446.76
247.101, 412.16
247.476, 382.17
247.852, 490.58
248.228, 303.75
248.603, 356.8
248.979, 412.16
249.354, 379.87
249.73, 455.99
250.105, 396.01
250.48, 379.87
250.856, 352.19
251.231, 359.11
251.606, 333.74
251.981, 363.72
252.357, 368.33
252.732, 396.01
253.107, 451.37
253.482, 382.17
253.857, 412.16
254.232, 349.88
254.607, 331.43
254.982, 349.88
255.357, 393.71
255.731, 416.77
256.106, 414.47
256.481, 349.88
256.856, 363.72
257.23, 407.55
257.605, 446.76
257.98, 419.08
258.354, 405.24
258.729, 384.48
259.103, 405.24
259.478, 375.25
259.852, 458.29
260.227, 294.52
260.601, 402.93
260.975, 326.82
261.35, 370.64
261.724, 370.64
262.098, 414.47
262.472, 319.9
262.846, 361.41
263.22, 359.11
263.594, 349.88
263.968, 428.31
264.342, 310.67
264.716, 405.24
265.09, 423.69
265.464, 372.95
265.838, 407.55
266.212, 384.48
266.586, 400.63
266.959, 409.85
267.333, 416.77
267.707, 349.88
268.08, 347.58
268.454, 421.39
268.827, 421.39
269.201, 354.49
269.574, 354.49
269.948, 379.87
270.321, 398.32
270.694, 453.68
271.068, 421.39
271.441, 421.39
271.814, 359.11
272.187, 405.24
272.56, 414.47
272.933, 356.8
273.307, 389.09
273.68, 326.82
274.053, 372.95
274.425, 405.24
274.798, 421.39
275.171, 340.66
275.544, 407.55
275.917, 370.64
276.29, 391.4
276.662, 407.55
277.035, 386.79
277.408, 372.95
277.78, 446.76
278.153, 379.87
278.525, 451.37
278.898, 340.66
279.27, 435.23
279.643, 361.41
280.015, 391.4
280.388, 405.24
280.76, 359.11
281.132, 386.79
281.504, 363.72
281.877, 426
282.249, 372.95
282.621, 382.17
282.993, 391.4
283.365, 379.87
283.737, 419.08
284.109, 481.36
284.481, 389.09
284.853, 421.39
285.225, 382.17
285.596, 375.25
285.968, 423.69
286.34, 336.04
286.712, 315.28
287.083, 370.64
287.455, 366.03
287.826, 419.08
288.198, 361.41
288.569, 382.17
288.941, 382.17
289.312, 407.55
289.684, 398.32
290.055, 382.17
290.426, 389.09
290.798, 421.39
291.169, 340.66
291.54, 386.79
291.911, 375.25
292.282, 386.79
292.653, 421.39
293.024, 326.82
293.395, 423.69
293.766, 352.19
294.137, 414.47
294.508, 356.8
294.879, 379.87
295.25, 326.82
295.621, 372.95
295.991, 479.05
296.362, 366.03
296.733, 391.4
297.103, 412.16
297.474, 384.48
297.844, 396.01
298.215, 384.48
298.585, 375.25
298.956, 426
299.326, 462.9
299.697, 419.08
300.067, 375.25
300.437, 375.25
300.807, 423.69
301.177, 372.95
301.548, 393.71
301.918, 407.55
302.288, 416.77
302.658, 377.56
303.028, 402.93
303.398, 453.68
303.768, 446.76
304.138, 428.31
304.507, 409.85
304.877, 384.48
305.247, 303.75
305.617, 402.93
305.986, 352.19
306.356, 439.84
306.726, 375.25
307.095, 437.53
307.465, 361.41
307.834, 382.17
308.204, 426
308.573, 407.55
308.942, 379.87
309.312, 326.82
309.681, 412.16
310.05, 382.17
310.42, 359.11
310.789, 432.92
311.158, 352.19
311.527, 393.71
311.896, 370.64
312.265, 345.27
312.634, 349.88
313.003, 409.85
313.372, 389.09
313.741, 382.17
314.11, 361.41
314.478, 432.92
314.847, 375.25
315.216, 368.33
315.584, 389.09
315.953, 363.72
316.322, 359.11
316.69, 430.61
317.059, 349.88
317.427, 442.15
317.796, 352.19
318.164, 386.79
318.532, 389.09
318.901, 460.6
319.269, 349.88
319.637, 322.2
320.005, 400.63
320.374, 359.11
320.742, 359.11
321.11, 479.05
321.478, 322.2
321.846, 370.64
322.214, 396.01
322.582, 446.76
322.95, 419.08
323.317, 409.85
323.685, 437.53
324.053, 382.17
324.421, 421.39
324.788, 407.55
325.156, 370.64
325.524, 393.71
325.891, 379.87
326.259, 366.03
326.626, 391.4
326.994, 372.95
327.361, 384.48
327.728, 372.95
328.096, 370.64
328.463, 347.58
328.83, 412.16
329.198, 333.74
329.565, 402.93
329.932, 345.27
330.299, 412.16
330.666, 416.77
331.033, 386.79
331.4, 398.32
331.767, 449.07
332.134, 356.8
332.501, 391.4
332.867, 405.24
333.234, 368.33
333.601, 375.25
333.968, 421.39
334.334, 398.32
334.701, 409.85
335.068, 414.47
335.434, 412.16
335.801, 421.39
336.167, 405.24
336.533, 393.71
336.9, 437.53
337.266, 375.25
337.632, 384.48
337.999, 400.63
338.365, 481.36
338.731, 379.87
339.097, 398.32
339.463, 389.09
339.829, 426
340.195, 405.24
340.561, 349.88
340.927, 377.56
341.293, 368.33
341.659, 400.63
342.025, 432.92
342.391, 446.76
342.756, 437.53
343.122, 432.92
343.488, 379.87
343.853, 382.17
344.219, 393.71
344.585, 402.93
344.95, 446.76
345.316, 377.56
345.681, 402.93
346.046, 375.25
346.412, 426
346.777, 333.74
347.142, 423.69
347.507, 319.9
347.873, 393.71
348.238, 428.31
348.603, 428.31
348.968, 419.08
349.333, 366.03
349.698, 407.55
350.063, 393.71
350.428, 435.23
350.793, 430.61
351.157, 393.71
351.522, 414.47
351.887, 384.48
352.252, 405.24
352.616, 315.28
352.981, 430.61
353.346, 396.01
353.71, 402.93
354.075, 363.72
354.439, 419.08
354.803, 389.09
355.168, 414.47
355.532, 398.32
355.896, 407.55
356.261, 389.09
356.625, 363.72
356.989, 400.63
357.353, 409.85
357.717, 396.01
358.081, 363.72
358.445, 435.23
358.809, 389.09
359.173, 375.25
359.537, 382.17
359.901, 347.58
360.265, 386.79
360.629, 455.99
360.992, 430.61
361.356, 412.16
361.72, 416.77
362.083, 382.17
362.447, 426
362.81, 416.77
363.174, 435.23
363.537, 432.92
363.901, 384.48
364.264, 354.49
364.627, 386.79
364.991, 340.66
365.354, 386.79
365.717, 324.51
366.08, 421.39
366.443, 423.69
366.806, 446.76
367.17, 474.44
367.533, 405.24
367.895, 481.36
368.258, 396.01
368.621, 412.16
368.984, 467.52
369.347, 451.37
369.71, 405.24
370.072, 372.95
370.435, 453.68
370.798, 366.03
371.16, 386.79
371.523, 382.17
371.885, 444.45
372.248, 396.01
372.61, 375.25
372.973, 469.82
373.335, 379.87
373.697, 419.08
374.06, 451.37
374.422, 366.03
374.784, 423.69
375.146, 483.66
375.508, 375.25
375.87, 460.6
376.232, 333.74
376.594, 432.92
376.956, 389.09
377.318, 356.8
377.68, 405.24
378.042, 391.4
378.404, 474.44
378.765, 442.15
379.127, 389.09
379.489, 423.69
379.85, 426
380.212, 458.29
380.573, 437.53
380.935, 400.63
381.296, 354.49
381.658, 345.27
382.019, 356.8
382.38, 416.77
382.742, 389.09
383.103, 398.32
383.464, 384.48
383.825, 393.71
384.186, 423.69
384.547, 423.69
384.909, 419.08
385.27, 379.87
385.63, 412.16
385.991, 405.24
386.352, 428.31
386.713, 495.2
387.074, 359.11
387.435, 407.55
387.795, 372.95
388.156, 379.87
388.517, 342.96
388.877, 442.15
389.238, 437.53
389.598, 384.48
389.959, 409.85
390.319, 423.69
390.679, 442.15
391.04, 389.09
391.4, 398.32
391.76, 426
392.121, 437.53
392.481, 414.47
392.841, 409.85
393.201, 419.08
393.561, 414.47
393.921, 416.77
394.281, 405.24
394.641, 356.8
395.001, 412.16
395.361, 368.33
395.72, 372.95
396.08, 391.4
396.44, 366.03
396.8, 389.09
397.159, 396.01
397.519, 361.41
397.878, 453.68
398.238, 462.9
398.597, 368.33
398.957, 368.33
399.316, 409.85
399.675, 363.72
400.035, 396.01
400.394, 437.53
400.753, 432.92
401.112, 449.07
401.472, 366.03
401.831, 377.56
402.19, 361.41
402.549, 377.56
402.908, 398.32
403.267, 412.16
403.625, 428.31
403.984, 363.72
404.343, 405.24
404.702, 488.28
405.061, 379.87
405.419, 342.96
405.778, 393.71
406.136, 345.27
406.495, 437.53
406.853, 400.63
407.212, 368.33
407.57, 315.28
407.929, 402.93
408.287, 430.61
408.645, 370.64
409.004, 414.47
409.362, 336.04
409.72, 393.71
410.078, 379.87
410.436, 349.88
410.794, 409.85
411.152, 342.96
411.51, 370.64
411.868, 442.15
412.226, 451.37
412.584, 342.96
412.942, 359.11
413.299, 363.72
413.657, 377.56
414.015, 331.43
414.372, 432.92
414.73, 391.4
415.088, 379.87
415.445, 359.11
415.803, 400.63
416.16, 451.37
416.517, 366.03
416.875, 349.88
417.232, 502.12
417.589, 352.19
417.946, 372.95
418.304, 426
418.661, 400.63
419.018, 430.61
419.375, 437.53
419.732, 333.74
420.089, 391.4
420.446, 402.93
420.803, 430.61
421.159, 407.55
421.516, 354.49
421.873, 375.25
422.23, 426
422.586, 370.64
422.943, 354.49
423.299, 412.16
423.656, 412.16
424.012, 419.08
424.369, 442.15
424.725, 379.87
425.082, 426
425.438, 342.96
425.794, 416.77
426.15, 451.37
426.507, 608.22
426.863, 806.59
427.219, 1604.67
427.575, 1881.46
427.931, 1341.72
428.287, 797.36
428.643, 564.4
428.999, 515.96
429.355, 474.44
429.711, 430.61
430.066, 449.07
430.422, 460.6
430.778, 502.12
431.133, 665.89
431.489, 1274.83
431.844, 2220.53
432.2, 2481.18
432.555, 1440.9
432.911, 635.9
433.266, 428.31
433.622, 439.84
433.977, 446.76
434.332, 437.53
434.687, 359.11
435.043, 421.39
435.398, 467.52
435.753, 578.23
436.108, 693.56
436.463, 742
436.818, 610.53
437.173, 716.63
437.528, 1034.94
437.882, 1041.86
438.237, 758.15
438.592, 483.66
438.947, 379.87
439.301, 437.53
439.656, 455.99
440.01, 492.89
440.365, 485.97
440.72, 506.73
441.074, 407.55
441.428, 416.77
441.783, 342.96
442.137, 485.97
442.491, 423.69
442.846, 465.21
443.2, 400.63
443.554, 405.24
443.908, 416.77
444.262, 354.49
444.616, 444.45
444.97, 647.43
445.324, 792.75
445.678, 871.17
446.032, 951.9
446.385, 1143.35
446.739, 981.89
447.093, 691.26
447.447, 449.07
447.8, 349.88
448.154, 437.53
448.507, 379.87
448.861, 386.79
449.214, 462.9
449.568, 492.89
449.921, 665.89
450.274, 880.4
450.628, 848.11
450.981, 511.34
451.334, 412.16
451.687, 340.66
452.041, 421.39
452.394, 409.85
452.747, 356.8
453.1, 389.09
453.453, 340.66
453.805, 421.39
454.158, 375.25
454.511, 338.35
454.864, 345.27
455.217, 377.56
455.569, 407.55
455.922, 370.64
456.275, 398.32
456.627, 347.58
456.98, 405.24
457.332, 414.47
457.684, 391.4
458.037, 377.56
458.389, 444.45
458.741, 386.79
459.094, 391.4
459.446, 393.71
459.798, 382.17
460.15, 428.31
460.502, 423.69
460.854, 398.32
461.206, 342.96
461.558, 439.84
461.91, 416.77
462.262, 377.56
462.614, 437.53
462.966, 396.01
463.317, 453.68
463.669, 414.47
464.021, 372.95
464.372, 407.55
464.724, 409.85
465.075, 409.85
465.427, 419.08
465.778, 375.25
466.13, 419.08
466.481, 407.55
466.832, 361.41
467.183, 361.41
467.535, 407.55
467.886, 421.39
468.237, 368.33
468.588, 423.69
468.939, 377.56
469.29, 349.88
469.641, 338.35
469.992, 354.49
470.343, 419.08
470.694, 354.49
471.044, 363.72
471.395, 352.19
471.746, 361.41
472.096, 375.25
472.447, 361.41
472.798, 412.16
473.148, 377.56
473.499, 354.49
473.849, 449.07
474.199, 423.69
474.55, 389.09
474.9, 368.33
475.25, 384.48
475.6, 462.9
475.951, 400.63
476.301, 391.4
476.651, 386.79
477.001, 449.07
477.351, 405.24
477.701, 379.87
478.051, 389.09
478.4, 372.95
478.75, 347.58
479.1, 405.24
479.45, 414.47
479.799, 400.63
480.149, 458.29
480.499, 407.55
480.848, 349.88
481.198, 451.37
481.547, 485.97
481.897, 421.39
482.246, 396.01
482.595, 368.33
482.945, 386.79
483.294, 356.8
483.643, 407.55
483.992, 382.17
484.341, 308.36
484.69, 382.17
485.039, 370.64
485.388, 400.63
485.737, 398.32
486.086, 370.64
486.435, 426
486.784, 400.63
487.132, 333.74
487.481, 363.72
487.83, 414.47
488.178, 363.72
488.527, 370.64
488.876, 469.82
489.224, 389.09
489.572, 414.47
489.921, 356.8
490.269, 442.15
490.618, 432.92
490.966, 349.88
491.314, 446.76
491.662, 324.51
492.01, 354.49
492.358, 442.15
492.706, 405.24
493.054, 384.48
493.402, 396.01
493.75, 310.67
494.098, 432.92
494.446, 349.88
494.794, 366.03
495.142, 405.24
495.489, 361.41
495.837, 396.01
496.184, 349.88
496.532, 449.07
496.88, 423.69
497.227, 409.85
497.574, 414.47
497.922, 419.08
498.269, 421.39
498.616, 396.01
498.964, 444.45
499.311, 382.17
499.658, 379.87
500.005, 416.77
500.352, 446.76
500.699, 428.31
501.046, 384.48
501.393, 359.11
501.74, 349.88
502.087, 421.39
502.434, 402.93
502.78, 366.03
503.127, 400.63
503.474, 396.01
503.82, 421.39
504.167, 416.77
504.513, 338.35
504.86, 389.09
505.206, 442.15
505.553, 398.32
505.899, 455.99
506.245, 366.03
506.592, 396.01
506.938, 308.36
507.284, 372.95
507.63, 402.93
507.976, 375.25
508.322, 377.56
508.668, 379.87
509.014, 352.19
509.36, 407.55
509.706, 412.16
510.052, 349.88
510.398, 359.11
510.743, 455.99
511.089, 432.92
511.435, 402.93
511.78, 432.92
512.126, 432.92
512.471, 352.19
512.817, 391.4
513.162, 407.55
513.508, 414.47
513.853, 414.47
514.198, 391.4
514.543, 356.8
514.889, 400.63
515.234, 432.92
515.579, 391.4
515.924, 361.41
516.269, 361.41
516.614, 398.32
516.959, 455.99
517.304, 370.64
517.648, 419.08
517.993, 419.08
518.338, 409.85
518.683, 347.58
519.027, 349.88
519.372, 342.96
519.716, 421.39
520.061, 416.77
520.405, 389.09
520.75, 419.08
521.094, 391.4
521.439, 472.13
521.783, 423.69
522.127, 497.5
522.471, 389.09
522.815, 407.55
523.159, 326.82
523.504, 423.69
523.848, 382.17
524.192, 442.15
524.535, 396.01
524.879, 366.03
525.223, 396.01
525.567, 384.48
525.911, 359.11
526.254, 363.72
526.598, 342.96
526.942, 432.92
527.285, 384.48
527.629, 345.27
527.972, 393.71
528.316, 409.85
528.659, 349.88
529.002, 375.25
529.346, 379.87
529.689, 324.51
530.032, 384.48
530.375, 345.27
530.718, 370.64
531.061, 437.53
531.404, 405.24
531.747, 462.9
532.09, 356.8
532.433, 372.95
532.776, 375.25
533.119, 423.69
533.461, 377.56
533.804, 407.55
534.147, 398.32
534.489, 375.25
534.832, 419.08
535.174, 349.88
535.517, 423.69
535.859, 419.08
536.202, 370.64
536.544, 439.84
536.886, 377.56
537.229, 483.66
537.571, 430.61
537.913, 396.01
538.255, 366.03
538.597, 446.76
538.939, 352.19
539.281, 356.8
539.623, 372.95
539.965, 444.45
540.307, 342.96
540.648, 303.75
540.99, 352.19
541.332, 370.64
541.674, 382.17
542.015, 322.2
542.357, 432.92
542.698, 419.08
543.04, 405.24
543.381, 402.93
543.722, 326.82
544.064, 368.33
544.405, 389.09
544.746, 312.98
545.087, 439.84
545.429, 329.12
545.77, 400.63
546.111, 437.53
546.452, 382.17
546.793, 338.35
547.134, 393.71
547.474, 375.25
547.815, 370.64
548.156, 361.41
548.497, 402.93
548.837, 421.39
549.178, 416.77
549.519, 419.08
549.859, 437.53
550.2, 476.74
550.54, 476.74
550.881, 497.5
551.221, 439.84
551.561, 393.71
551.901, 435.23
552.242, 481.36
552.582, 460.6
552.922, 407.55
553.262, 398.32
553.602, 400.63
553.942, 382.17
554.282, 409.85
554.622, 455.99
554.962, 372.95
555.302, 407.55
555.641, 675.11
555.981, 1205.63
556.321, 2870.99
556.66, 4794.69
557, 8021.62
557.339, 11638.36
557.679, 5740.4
558.018, 2292.04
558.358, 1237.92
558.697, 744.31
559.036, 485.97
559.376, 465.21
559.715, 426
560.054, 442.15
560.393, 421.39
560.732, 412.16
561.071, 333.74
561.41, 479.05
561.749, 451.37
562.088, 421.39
562.427, 393.71
562.766, 414.47
563.104, 423.69
563.443, 400.63
563.782, 421.39
564.12, 444.45
564.459, 419.08
564.797, 497.5
565.136, 675.11
565.474, 624.37
565.813, 479.05
566.151, 379.87
566.489, 419.08
566.827, 349.88
567.166, 426
567.504, 506.73
567.842, 455.99
568.18, 398.32
568.518, 382.17
568.856, 368.33
569.194, 359.11
569.531, 342.96
569.869, 405.24
570.207, 412.16
570.545, 396.01
570.882, 409.85
571.22, 451.37
571.558, 419.08
571.895, 402.93
572.233, 349.88
572.57, 449.07
572.907, 465.21
573.245, 412.16
573.582, 421.39
573.919, 437.53
574.257, 375.25
574.594, 430.61
574.931, 361.41
575.268, 342.96
575.605, 476.74
575.942, 315.28
576.279, 453.68
576.616, 400.63
576.952, 331.43
577.289, 375.25
577.626, 432.92
577.963, 437.53
578.299, 370.64
578.636, 386.79
578.972, 416.77
579.309, 372.95
579.645, 347.58
579.982, 437.53
580.318, 363.72
580.654, 442.15
580.991, 467.52
581.327, 430.61
581.663, 449.07
581.999, 347.58
582.335, 460.6
582.671, 573.62
583.007, 522.88
583.343, 485.97
583.679, 578.23
584.015, 465.21
584.351, 428.31
584.686, 407.55
585.022, 389.09
585.358, 389.09
585.693, 407.55
586.029, 578.23
586.364, 1069.54
586.7, 2960.95
587.035, 6937.52
587.371, 13119.2
587.706, 8420.66
588.041, 3625.25
588.376, 1858.4
588.712, 1028.02
589.047, 645.13
589.382, 449.07
589.717, 432.92
590.052, 416.77
590.387, 449.07
590.722, 359.11
591.057, 379.87
591.391, 372.95
591.726, 446.76
592.061, 398.32
592.395, 349.88
592.73, 359.11
593.065, 393.71
593.399, 379.87
593.734, 391.4
594.068, 382.17
594.402, 312.98
594.737, 366.03
595.071, 432.92
595.405, 366.03
595.739, 416.77
596.074, 437.53
596.408, 338.35
596.742, 382.17
597.076, 444.45
597.41, 391.4
597.744, 347.58
598.077, 393.71
598.411, 393.71
598.745, 419.08
599.079, 490.58
599.412, 513.65
599.746, 776.6
600.079, 638.21
600.413, 481.36
600.746, 428.31
601.08, 444.45
601.413, 566.7
601.747, 539.02
602.08, 520.57
602.413, 453.68
602.746, 396.01
603.079, 389.09
603.412, 426
603.746, 430.61
604.079, 469.82
604.411, 405.24
604.744, 400.63
605.077, 363.72
605.41, 453.68
605.743, 575.93
